Fp1,AF3,F7,F3,FC1,FC5,T7,C3,CP1,CP5,P7,P3,Pz,PO3,O1,Oz,O2,PO4,P4,P8,CP6,CP2,C4,T8,FC6,FC2,F4,F8,AF4,Fp2,Fz,Cz
2.096167396530446,2.0393216406207793,2.049157391064086,2.233857699079929,2.2596082325407303,2.1988520705384347,2.097108688133773,2.3616006834466536,2.2873640787979004,2.344299662892524,2.227521353126958,2.4719250726468696,2.049430321344132,2.3930740174032654,2.447406600918294,2.3124224243618667,2.133961823527597,1.9918082551948997,2.248840858485584,2.167251164687297,1.957656019505995,1.927806839711363,1.8595200587984244,2.189917116842109,2.254951805628114,2.3270057609543016,2.0392840899841604,1.7541555277472043,1.7493183630676743,1.8834433360198182,2.306174443487919,1.9683089928562012
2.2210981422829663,2.1317269378767643,2.3429897434510907,2.262210406436788,2.2993122812130613,2.439454783108029,1.8365547180575201,2.4094553550391082,1.9469671768755676,1.8690526812436217,2.065333380405609,2.40066575973888,2.05701891289681,2.369633977904944,2.493259798651557,2.4915486176352424,2.527851549933123,2.743223825211736,2.4949345946384995,2.228757426803142,2.1009376875016677,2.2731245674109184,2.2818800952779,1.8256759355136762,2.1650409538586937,2.4262459478403966,2.1070198208204562,1.834751427749951,2.1968764876414624,2.1263688953551148,2.2723185566990933,2.348551140061659
2.1420041557277947,2.045312146861839,2.282405988148035,2.1651557473358647,2.3533787409235445,2.3903610182568817,2.2971778553218094,2.5657705800408754,2.2344497801741725,2.2967828749548964,2.111102614265655,2.540488908698464,2.391287211284027,2.1453561865233866,2.315808742628217,2.201677189486765,2.2796960922811147,2.370183650076723,2.2965529278078503,2.023172063346144,2.2623527710209523,1.9880084400731475,1.894025832960615,2.0750264532462146,1.9722882300522049,2.578503081996498,2.0256986277774054,1.945711597373248,2.142029896707544,2.185472569149811,2.0351650919748265,2.2557886019063504
1.8742304672141397,1.84688186697502,1.8860212618218113,1.6355038835003581,2.1926076426180385,2.1114875130324164,2.013524848101962,2.1090765103666804,1.9230556117857869,2.270268059789325,1.9115264996814498,2.389504476924798,1.891350639814953,2.1981937741089643,2.1852669227554706,1.746402820706834,1.637564849978388,1.7491064052072056,1.9469505824037887,1.6536860017683606,2.065656068522903,1.7459452863571112,2.1507012336311164,1.6548064334159038,2.1825252632743157,2.2185328142042975,1.9219373429780564,1.6952698627627771,1.793704250144047,1.9070410544041951,1.705484040630893,2.260199097365611
2.2714828979744337,2.3586470835432265,2.081200207435564,1.9653462576108516,2.325544338769936,1.8267423601081563,1.987072034497474,2.058459998936011,1.6291072196749259,2.2333954116799775,1.9206889702279804,1.7556124699541094,1.7383106151063625,1.9645084490775253,2.1775896641880377,1.9992950132484115,1.9980865194386792,2.3287929110811882,2.4073279156645797,1.9405063194004832,2.0571511519278727,2.130811439710511,1.8189076067572463,2.0765672717565606,1.9347211494669834,2.4286729628116297,2.0318450669090558,1.7669556113329856,2.5042907258075244,2.139502059586382,2.520420079422992,2.2716421923875387
2.435377516900102,2.5825234525825205,2.217176693313062,2.257485122849884,2.309771903383445,2.3748293340444793,2.1308474421042938,2.376751491591504,2.3003271053237295,2.2459201430409412,2.1794188686572418,2.3516597723629777,2.1428612262017777,2.4852429041124324,2.3304536245026837,2.1068712569895927,2.2175686905104754,2.802644389455114,2.2544132108916175,2.173815219830301,2.350235176117277,1.8795917688089876,2.204371973322939,2.1162859952177024,2.2784539269743163,2.327321656538786,2.073941706122132,2.135633111986893,2.254013006353425,2.0644308585445934,2.0326443788544295,2.2857708911508143
2.1219203581173725,2.22469121203799,1.975214346066891,1.901895777882224,2.1121414776209333,1.8841397351846023,1.6147010602433796,2.1958437620951394,2.0135652899415994,2.3035833924661984,2.0160867560407687,2.609650736016012,2.5780625443464684,2.5319011738665975,1.8392219935282526,1.7228552343712977,1.9299826435210827,2.265277492936241,2.442113716504573,1.8450369827840736,1.81950458377649,2.248084473198838,2.0253296162283343,2.1553200228574925,2.149195446852263,2.1916033479204446,2.016856719672698,2.0608343926958756,2.2122179893426193,2.0939121872261715,2.000965385404382,2.0538779640584233
2.2134593489405603,1.9881623487864484,2.484967410019608,2.3011578865294506,2.1452731658851314,2.3916351111184095,2.0772371416655653,2.2148892309143497,2.4222197952217583,1.9835872117348574,2.455585262291708,2.880713599962416,2.497654515468428,2.5005019547813894,2.2521469794655022,2.1433718811497138,2.0425255124920842,2.252391436202301,2.168516608904209,2.3634256272363316,2.14758489929249,2.173120875634743,2.135612005195462,2.1274287754007966,2.2806151785518805,2.2896287443385637,2.0839354070507268,1.985262224786493,2.049275114337272,2.1447972290113473,2.156681619934543,2.090156764391661
2.330108603733743,2.3803551913146253,2.287189984269665,1.954266406696565,2.2729931119874056,2.2201350930758257,2.2477167288015782,1.881767754950571,2.1439231210650953,2.275301094614114,2.205192520193296,2.6202361794474287,2.4279112461871772,2.785958254878761,2.4117631322489737,2.3141197398162228,2.3577244793761327,2.8756239390238476,2.4328738092641395,2.200874031295775,2.1114803252751813,2.2496793968227102,2.4046971057850155,2.506266017010123,2.5053914762356717,2.181742105694258,2.2424007956925616,2.6632423428512406,2.3940359876414883,2.457123706843073,2.2117331814800725,2.42880865591969
2.093466830088719,2.1083229650541355,2.4660852558349813,1.9010853277325905,2.5994577356869835,2.73491223984098,2.377793043834339,2.2631240967192894,2.3250560735435726,2.1417216993329027,2.187678832967563,2.550035031790856,2.4826600295450056,2.0795308822391916,2.110580248965726,1.9138345172117253,1.9021836858726733,2.2564219114562643,1.7860022444368095,1.7054076837910637,1.9241457933302644,1.9952176599344464,1.7322773417680795,1.8940971905024309,2.3895673849209387,2.1134087551374865,1.8594018960305878,2.162615676847318,1.9618700683551555,2.022027766345885,1.9193277368052257,2.392662654579132
2.2208533385183777,1.855184269578259,2.858844741603178,2.0785179825359976,2.256677070765866,2.851882337628323,2.683736998443109,2.046341814854168,1.99124802577674,2.346748564603157,2.073447693155273,2.458114214786106,2.471603760682113,2.335449242576679,2.162409535157794,2.103437681925625,2.0495212636778444,2.381357892476114,2.3721847748739555,1.8573528278598492,2.3306804075871805,1.99563417467772,1.8117909904110354,2.4865089923485115,2.251616176146597,1.986547635138833,2.1228489202891496,1.950348640577451,2.2745008955136847,2.101501523543448,2.0685844068007526,1.9018599674405037
2.2793528241384067,2.5116656022976525,2.0522218901104763,2.2140050440390233,2.638368181337544,2.5938583335037433,2.3025585381129856,2.2622666273092915,1.899304486886971,2.0871646952108334,1.9664986949420944,2.467799037209461,2.2387181016168687,2.477336851708622,2.341188725713015,2.0672050745839408,2.3095103843249594,2.4403573686629736,2.4654470338345646,2.0828476102268527,2.114995451236317,2.1025627319540723,1.9986998835041205,2.028084455254393,2.1764657154437184,2.7022643617877464,2.122058696588196,1.7736427700233426,2.234570942735813,2.058608650388145,2.6193784353013965,2.5368831989384515
2.2403458481450764,2.6296224017149883,2.569391318671415,2.1001248145096216,2.505430090065469,2.147149865882778,2.4123872281205214,2.3124747043463056,2.1538905345599417,2.1561733962852676,1.972056191056868,2.2799872740985156,2.176769853988197,2.879343470384863,2.3849121693109536,2.2193194900731683,2.2961884631655503,2.6344220577625785,2.7587051441106887,1.893202743495135,2.044469633705032,2.0758550865588608,2.250752692924332,2.4860068881718616,2.1684916091783646,2.4306297036676154,2.1093890365864247,2.080600356319011,2.3186523246664423,2.0574899133384514,2.311049460672602,3.076297487325665
2.264587768877944,2.3609674236822986,2.1968585751183083,2.1786812785602367,2.415491399209222,2.434628710755952,2.334167507171563,2.312270899510908,2.405729977277161,1.9714492691813803,2.15419477308047,2.158703990667396,2.3374802102329633,2.507658226446524,2.2228284882584948,2.0443034693463136,2.128834274794132,2.2098315527842014,2.705840422437919,2.1808852110796386,2.2745824637918663,2.6945459382652244,2.0687098223779716,1.9403241866787506,1.8468232899059094,2.4604205721644723,2.161632551390309,2.5544362981601796,2.2672608775294076,2.3545639596683063,2.3413564354787724,2.0883546304767298
2.083783638686802,2.3996566540310096,2.306391718242035,2.1244478372695124,2.6516510757608467,2.4253228505059474,2.3125136192972637,2.345584106026764,2.305264744662784,2.1908350315467353,2.559756467811075,2.217091616857129,1.9338340772955094,2.4939047045317495,3.0205049807684525,2.577565258967483,2.8053116959592037,2.694848923644358,2.2104817614113244,2.0241576430872503,2.074900183689728,2.1635576172471693,2.639131078166878,1.867544398744035,2.3065760216397666,2.609640785163972,2.263847975551216,2.457749950206717,2.3459477313335495,2.0359171346760925,2.385934898286719,2.301885340800917
1.996288907468487,2.402405490685295,2.062525454997738,2.6023340730196476,2.0677219640006275,2.2566656150678233,2.4758947947808165,2.052227066215371,2.335430082237441,2.493745006989389,2.803310681530459,2.378624457737895,2.3017138572427727,2.6993582347035114,2.2343694735144357,2.4317133239374606,2.1212753777959366,3.232027140039437,2.4497375840547555,2.50689278528938,2.623958469740009,2.2125561256472692,2.5666860761209858,2.379817723890262,2.7253310866074885,2.7736202588256345,2.311993065987692,2.3847416862199915,2.6149894964786125,2.034057569577495,2.4958618239736663,3.072251309108596
2.388163289661563,2.226282233411943,2.2522518976887427,2.1662834582313804,2.6492531207652634,2.2909488122152846,2.29604427929814,2.2951404532489783,2.056970469150136,1.9738056002813757,2.0118782205911985,2.3346059048436336,2.05162974884561,2.6525959113555864,2.312157747503311,2.3580976915518277,2.3370570784967226,2.2698789640528987,2.6489780597004273,2.352861019211669,2.6314612739416003,2.418368804259688,1.9525360392106141,2.147471185490642,2.140644072101622,2.5243121802526844,2.119093748176077,1.6596114611925208,2.1644427938826505,2.2627139527881184,2.290789765961929,2.415249907509377
2.3008643034208043,2.045455027973422,2.394538098754811,1.8540773468326115,2.1431442038202997,2.5097049896635606,2.3442249894610026,2.2027831205066217,2.1917081317071205,2.2710769929361456,2.2978057238174623,2.388373700882778,2.0822773812276414,2.388117568721264,2.5122401418203695,2.0916645571877113,2.041619076967411,2.104768837410345,2.4704014752609718,1.8881283426833635,2.542460494316202,2.274597656351458,2.1598581644914336,2.163060432056998,2.48581158613547,2.0991574641776793,2.077311098208558,2.3446505700904603,2.376577070735576,2.177290618590082,2.094876258381594,1.8969396562663483
2.184052496630293,2.2133092989614243,2.093776762496455,2.414935330434887,2.23876978099684,2.0833323462705393,2.112954322755859,1.9960714740855887,2.2693367988108433,2.4201561110083922,2.105895868174716,2.2998678029260793,2.2915170391624016,2.119540981018938,2.044253213193176,1.8553744221421475,1.7455672054633327,2.112311132615708,2.2504640467907455,2.3178803392171354,2.3402219449911086,2.0474180320066333,1.9063186756684023,1.648535542494843,1.9375806166465817,2.384055815285963,2.0509817394523693,1.9246343518482782,2.3858767661133253,2.2046423437294163,2.4213812637456877,2.149111032486181
2.5126485111284995,2.103769619069074,2.6284389311925542,2.08390861951012,2.231303397114248,2.6964671343059448,2.6627487243378094,2.3196444717844438,2.248921701819066,2.407671346167136,2.438597465181661,2.438548385842162,2.4281504760100967,2.301815745080224,2.3117258161378156,1.9362453443164918,2.127350246172988,2.076868645884999,2.2933031316449664,1.956069457594387,2.335474302579697,2.389809551631645,2.19974610272557,2.0323604934053736,2.5820895484294457,2.1719424357736976,1.9900062299865369,2.0177939719038087,1.9767597912902466,1.927188997324326,2.0221923022095747,3.4667823084530034
2.092795543322466,2.279159392409882,2.342191803020845,1.9671175505815963,2.2958587968014803,2.220182423487537,2.0989125926647447,2.3147870702097055,2.2806128559969445,1.91222625960831,2.5515943022388994,2.0612905356302984,2.0780578391222044,2.2093864474101443,2.201605937634627,2.28493067794789,2.218709797553621,2.2616298250627582,2.3717382767384914,1.900173391807047,2.433010768429607,1.9713544852695954,2.384722581247519,2.1241932352810937,2.246406970179075,2.5458464788389783,2.165037526761835,2.6001645704786034,2.3557357550899196,2.1216176812171312,2.4910367454065807,2.1034688811797553
2.0418850025695816,2.6623965986929643,2.168844932703532,2.2475315567032834,2.4128254852121196,2.3833558344200148,2.4109332501311282,2.204681881769449,2.183119470764398,2.0985453731798582,2.1330474680787885,2.144623280528185,2.4872995302708096,2.50027535624122,2.4262798759812574,2.1942156053236954,2.0559758454549164,2.691133777478681,2.4994615175434993,2.1241382765330488,2.285066859639494,2.2873538874894432,2.1203735978599387,2.094468704463821,2.434712863222501,2.489304607590105,2.1653711801419444,1.950870764258444,2.3911665246613105,2.1781851527268468,2.295370510650214,2.49960037534453
1.9973936488563366,2.4348173169522673,2.062218228190611,2.1251533917251058,2.379597244556789,2.057660565678741,2.106442674618864,1.8908198853027385,1.8909295398080501,2.1204191323708654,2.3123738618386795,2.1530467344465083,2.261308369880813,2.40409444342045,2.2361486377695066,2.0408050789856067,2.0916617897255683,1.847454074452513,1.9964263520381822,2.1082689861236865,2.216132731036144,1.914202152118095,1.9903325055851773,1.9592764973864825,2.14867357419921,2.122833669167746,2.099802527921998,2.2859249114572817,2.3222544117889727,2.385645085207781,2.3572643768381916,2.693635165526192
2.066726177737963,1.9597677045255577,1.9902005874577258,2.5176772258263913,2.290610026821029,2.0870076670488356,1.902202372717309,1.9609466720919384,2.3395027244996927,2.083874261927283,2.0252296147338225,1.9710075580886086,2.2797043716453804,2.286698003854678,2.0520888499529395,1.9256819776050116,2.1522291674626084,2.1866326340726734,2.151792662050537,1.922175496682325,2.113354457649282,2.069579217841549,2.102503272240721,1.8814861999231018,1.9021993077900812,2.3635588784846515,2.351048006508206,1.5160140666297344,2.2625350699566673,1.8986582447118008,2.360110469513803,1.7636271519738944
2.1475360269939032,2.4218386194453267,2.162649491706663,1.8653746600967667,2.309263677552901,2.441453041618978,2.387192014269644,2.489128413188927,2.083796030668087,2.0739725512625244,1.9502984786216984,1.960237372704435,2.2508430179617536,2.4820386205894622,2.3997135846764457,2.518980275807472,2.45442310411754,2.708991260262777,2.4090771140713083,2.0015805448189234,1.6752418503365747,1.8665528111470704,2.085924661455919,2.4056722069992293,2.4891331577896825,2.329633368592571,2.078157813457344,2.0803527219771683,2.32200961718951,2.1493069328047967,2.385971840192939,2.2759391039830694
1.985998090504454,2.3152486097695997,2.0130958535682337,2.023502800430147,2.3778442902044685,2.272394552283157,1.9093712695389293,2.0995570364319605,2.0567293792694703,1.9572741013826829,1.9865710291116323,1.8751918176711393,2.0926199639430694,2.0041737844302188,2.1000964926819035,1.8980585059740362,2.203025737140596,2.2812439294459046,2.132866415305934,1.8276773699272253,2.0153640587374335,2.2269145148734517,2.2419500397441903,1.966250137520372,1.952676408469775,2.2189343577364724,2.2258516244758813,1.6225187192349853,2.2550226141521854,2.0514046138147894,2.114801577653111,2.485510251844093
2.0322263438125434,1.9631509079433107,2.0968144111152864,2.301133749564888,2.6311609318135445,2.4121558360700086,2.384267626057301,2.0590837651964784,2.121061924882857,2.0409012834162024,2.183725346068366,2.4530927500733726,2.311792207053464,2.3588185088878855,2.1994564526583638,1.6697952315694926,2.0751036581225244,2.325135851953086,2.483558871613121,1.7852596390311346,2.194879924137706,2.201714792383256,2.4129445360002335,1.6583291913827143,2.126226502084781,2.657457251294373,2.2215716051990917,1.6453166207487722,2.4323382067717407,2.1196556905941604,2.5693969714097067,2.593563457793274
2.2274139935376778,2.1086282041803677,2.1108272695532597,1.8804364795633284,2.1393605485170233,2.480056467418077,2.267327899387485,2.244410234440035,2.3654695191084962,1.969802854694833,1.9592051712349325,2.2325878986837866,2.2533752496155386,2.3491839120814917,2.32078968417725,2.1833671266258956,2.260694746568999,2.1163687243574496,2.4901427255531017,1.917748392192437,1.5666507838453154,2.2403147543795465,2.2802362951806163,1.9267984370759683,2.119647477111896,2.513953958712653,1.9862346928956318,2.167278802803344,2.2606455376218646,2.3860640902887544,2.0936275111489353,2.377932324168375
