Fp1,AF3,F7,F3,FC1,FC5,T7,C3,CP1,CP5,P7,P3,Pz,PO3,O1,Oz,O2,PO4,P4,P8,CP6,CP2,C4,T8,FC6,FC2,F4,F8,AF4,Fp2,Fz,Cz
2.64393830234378,2.5054485848135712,1.9990055934947042,2.0560638192438807,2.2743353215382194,2.1007163056260505,1.9030070230622909,2.036584340590883,2.054013455774949,2.1214717959547715,2.047964399499395,2.1626894599655966,2.190943437851622,2.1915443452730683,2.526193083779327,2.283484830774721,2.3835404843238948,2.3172056514204127,1.809778042128559,1.9036514858781055,2.253753531639303,1.970984538746932,2.41551474210225,1.9409961772213176,2.082729136646685,2.1377250009712276,1.8872977789000285,1.9973253295846505,2.362309270692236,2.4428608618128367,2.0791586122382957,2.235769368332662
1.7983902969619414,2.1725017914926847,1.9276230668589776,2.0156279267780595,2.0420998940161126,2.1594655599527766,1.959420028532222,2.0918176272636826,1.6315644255074933,2.1294201149810967,1.7960319499568833,2.0164767162842976,1.9869647377624235,2.16681092626385,2.568532471330274,2.7607674705044745,2.703595467393704,2.2948247601559957,2.16098878296004,2.038072132595957,2.061620461460514,1.9724490976947777,2.073905728513076,2.205630570051051,2.4414798069137214,2.0663338287195616,1.8922567913789938,2.2713145612339694,1.8217020361951124,1.660217631360103,2.0324433021114814,2.0022432560472225
2.278035536638402,2.1986166777310276,1.8093539326664212,1.9942831320733587,2.5985726407025345,1.721325255662637,1.8232704434472777,2.859721154450263,2.707144394577155,2.128613073731771,2.0703414719169784,2.2540398125637138,1.9653457868598807,1.8578845795569294,2.3479914487636107,2.082869015501614,2.237308828739257,2.0042756066579956,1.983009748846694,1.777944462323548,2.0223629465041886,2.188358591359896,2.093095338563662,2.0979396199907976,2.455807631115797,2.7200171629491394,1.9845808956480193,2.3052603905738995,2.2400563748195945,2.136582158566485,2.119196554549236,2.533609590405728
2.299716256898579,2.084861360751952,1.9509380432295642,1.9636739907862548,2.1578361883761605,1.787423422882131,1.9683432094960756,2.23792635287377,2.1061215738287458,2.222078588332569,1.831999032951368,2.0075088047085177,2.091910687278272,2.254945966311861,2.5250425294042707,2.4814751998057525,2.441718606993528,2.0595804103346547,2.3067156693891775,2.1598140551956244,2.240527419394976,2.3481936648514985,2.4618702972052082,1.9986693007116516,2.1741726543937427,2.1890676765289805,1.4441348735336181,1.7770415519215956,1.9481197850632048,1.915864228950278,2.204653564510053,2.149863874557374
2.2121304305621887,2.0651180726146645,1.779770047553096,1.5641453546321027,1.756942102058794,2.484189532033799,1.655270740226365,2.5464210968965877,2.0484051163356227,1.9544523244974876,1.944790722610707,1.8933276842746123,1.8640658942244572,2.2531204492536774,2.755544974491649,2.617232634627667,2.651378789732634,2.7565241672459915,2.291235517099025,1.9306190079620684,2.033335203369844,2.1883666777668402,2.385092738219202,2.0426095631563213,2.6705314753265506,2.439460286398762,2.4016520476421257,2.2132717466461247,1.8342150053469046,1.8125497930026517,1.8137686062831226,2.4651531488768206
2.0252358258899266,2.363828184580034,1.9345373454676396,2.118806622714595,2.2742009418326012,2.1845815309893997,1.9504282202762349,1.847730683121461,2.2547716001649434,2.036681067652653,2.0040385650106614,2.044604936760723,2.3333176919498633,1.9930912218305306,2.1478677364122976,2.318229306321176,2.2758275088103948,2.180326232486377,1.7889839005958084,1.8328584205427074,1.738828702484959,2.61624627167323,2.468600074484817,2.0184690240110563,1.9972974427663404,2.562255982144228,2.016354910515689,2.099166135134732,2.1518329587430256,1.970171839858025,2.3618494541243957,2.83338205641384
2.2488349397778005,2.2557335515890724,1.6382343839652789,2.126233111786631,2.3334733525906715,2.267658360371367,1.7804353063082694,2.167868344134422,1.9699501220089057,2.29943515907323,2.110191217118736,2.3252074261063314,1.8082256169261157,2.312076418742466,2.6355162092362736,2.8464367650589537,2.8048744531223386,2.099351008343765,2.2245430030570463,1.9758109937406456,2.2828595326313526,1.9138585182278267,1.9608829405628134,2.172905371199972,2.5825508572446454,2.30854772200299,2.0143946168799047,2.372237497952127,2.1848306896321446,2.2771344021107285,2.280833999025818,2.171869344655582
2.270941655446905,2.364798454758441,2.023501437928351,2.336506229492767,2.3022885860003663,2.2098960015026177,2.4519421733439772,2.4027139730748783,2.231396424464428,2.089494640411063,1.9960662287272368,2.1900909826333543,2.287169274733661,2.168047877420765,2.5683514136390406,2.535135152146464,2.493809436692902,2.2042238286387406,2.4452342662060618,2.0162075555151553,2.2659663164649007,2.503929526549932,2.188792871218488,2.163062797745102,2.1281822904280787,2.3739515829524587,2.1198820431122822,2.241983894416157,2.38015156801236,2.4150637158783566,2.3696524022170036,2.5027960478829763
2.02551332049368,1.9522298881976528,1.4398571780707503,2.0510307681501256,2.195041738622698,2.118913688262657,1.8796599840011645,2.013454750374038,2.371038272541295,1.984499184479064,1.702386918148039,2.144311710617805,1.8024195742829294,2.0165413431802444,2.2040950487294277,2.2122183626540592,2.214992643191972,1.9779223157927717,1.982654727593751,2.0471962544987092,1.8168223419242713,2.05879539189326,2.193862421826519,1.9217479502285966,2.074885145559565,2.1009447588670502,2.137772175416413,1.768028080395747,2.2531966780099024,2.1898279352876675,2.15846193421237,2.169058260537886
2.3219926212747914,2.1663718787403123,2.0687413125583705,1.9121036540404797,2.3774502940368296,2.335189156843626,2.2868103924896066,2.133060561963234,2.029688032033002,2.240406608378935,1.8264264038637605,2.1752499498964992,1.9948916436962105,2.2782843197861586,2.275680650668574,2.104531220198601,2.150405393926545,2.552688493341225,2.2925176477953633,1.7860684381529162,1.865077571189215,1.8730334017806975,1.9057374410782058,1.8037728638540722,2.352700406866198,2.2545541379333582,2.0549609676927294,2.5487519358503716,2.1859951643630744,2.1850307654900782,2.1058958875836407,2.33056215610361
2.2517263031267825,2.3524673864941588,1.9467472788079034,2.223790370045093,2.257118226500771,2.2659781515661535,1.7926760046281138,2.154091371128979,2.173879559337909,1.8080904457446731,2.119431312736897,1.8088809532452506,1.849553240657015,2.1296904543764072,2.216373703064793,2.5191755686628783,2.5460960351039317,2.2118543803033637,2.2598885620584275,2.1876718076908253,1.8569607875235699,2.315055007109458,2.0772237538711735,2.1519136501225713,2.1073534238516456,2.7838835174026313,2.1522105539496454,2.108803574264751,2.188646162309145,2.096325715701863,2.2890892510136847,2.517101501878522
1.8562557332011507,2.597737288948796,1.6716665815581226,2.377040634775954,2.4274065636224877,2.184978847648243,1.9886491545047755,2.2110261238868874,2.5588511995931524,1.6772151631979195,2.070159892316332,2.2375490409872807,2.166877780356073,1.815040212860461,2.3640770376544684,2.2611025010119357,2.274595582902636,1.89213059454771,2.3774112675950367,2.0373769644104116,1.7913182714490326,2.4070806436934564,2.3761737722452634,2.2418239700837614,2.544263077084533,2.061046073391729,1.8401648819121625,2.2258282306493506,2.076033603979862,2.3378489939353457,2.724205536242247,2.1094727086184557
2.6840875030044162,2.7502606638225253,1.6303199745331272,2.5319473027444577,2.4803390750179006,2.408567734620313,1.8643963486593413,2.215528304074649,1.9493607904410932,2.0333695659833344,2.165765477145074,2.0853556122052703,2.0481640982899263,2.410669109886732,2.4427637984810295,2.694271973668193,2.7202396293989133,2.2090420762378504,2.215784216855781,2.1113045150686522,1.7470380148304128,2.231983450588444,2.0909890336978205,1.6198956522841228,2.243419035152715,2.2611677493638442,2.221190821089882,1.8651172338030766,2.2173701014322846,2.3162119950263715,2.4276794721114348,2.3186218469208906
2.540318786198389,2.5808641445684843,2.0908343901208704,2.0536503848280807,2.276150381425006,1.7210770042836578,2.2598384501924675,2.053264795810823,2.753674999137599,2.100702580769472,2.2136156960598505,2.3287419130193174,2.1182247882197,2.2307358136360116,2.4870983954972865,2.5718137712870917,2.6041708889684765,2.4074904144667575,2.1709993018584397,2.005898434146826,1.9482245686439907,2.3558534575239065,2.1962485562015397,1.5781854790986558,1.927911064136228,2.288381674221486,1.9725530950607617,1.9970521994548425,1.983998265526888,2.008490899172277,2.0766395411300342,2.5726316286300333
2.585350564779633,2.4087660479987343,1.6317658866678075,2.0234868274470155,2.2301514997032514,2.24441851652734,2.158255534584836,1.8957525252809146,2.3841094103596094,2.3488347665903326,2.0782106504923936,2.025381945592194,1.9952110080914944,2.1104844830030336,2.3188679440374216,2.118117026654129,2.309539316771062,2.4150227806268836,2.356889293332348,1.8381849515794653,2.022851464079505,2.1321362617086677,2.022373944739953,1.570932560599061,2.239463979712239,2.2676995904686668,2.4795231289682227,2.194104485638709,2.1267109655377996,2.198240541007416,2.2799098451670985,2.187467988992989
2.3610996270043643,2.2336429665235396,1.641437920032062,2.335095139700543,2.417667765623865,2.23812764164717,2.1606818374923047,1.9996156884803507,2.206512278457864,2.1371635040043633,2.0392875390293583,2.164192076314147,1.9249693841045552,2.0641917603890807,2.4189708791157916,2.400798261592553,2.3404844355173555,2.141805266451448,2.5012483408537776,1.9744739550630444,2.2359863946444483,2.177501188881072,2.291836815430511,1.9067599573887215,2.4408078060580016,2.146267291995043,1.8206288057407387,2.284043275843339,1.8138234725034745,1.7870120442482091,2.2568474291440066,2.4206816756380616
2.3179104400822457,2.2762787439310124,1.6226907590526791,2.3412870879813976,2.555277994935626,2.1291551014976062,2.155962756177947,2.146742764970619,2.0127701463074046,2.0504835380799644,1.8230150249386687,2.2969309378490492,1.920991197761748,2.185164812844922,2.3325184977114786,2.4009886444121795,2.423159027954278,2.504466435506731,2.282895507776001,1.5545377550416613,1.9630464625598412,2.3630810676063696,2.31631288413828,1.6133719555553447,2.122104615419063,2.119099166931276,1.9542514153463337,2.1875764016773074,2.238365291076578,2.222526961617706,2.5061636037097412,2.089785161400422
2.6649697012707536,2.4016179947082343,1.9142047353045935,2.307026275790941,2.309999447519949,2.1154080317503405,1.8853330118359028,2.040545687541454,2.1120937800077524,2.18137166712816,1.9425780785811053,2.042264986158278,1.9896947007240813,2.0822071461115086,2.47839563148665,2.256559224138123,2.214704047004355,1.9880216509800324,1.8494109050267868,1.9548959703860056,1.9687114391670855,2.0431842602270502,2.204500157801717,1.819758558611103,2.135153901998525,2.283321123163226,1.9960684700341318,1.9312626760239189,2.015844058733737,2.0023457312873187,1.9912843192662792,2.4268511972763047
2.0044389717210893,2.162584040627336,2.0399545178983893,2.072653618573154,2.456953592558816,2.1417718321032977,1.732936279772445,2.562167484261361,2.28863214745096,2.0122126472707333,1.868696646707957,2.2275877370198875,2.363445297591679,2.378413795849105,2.156496009018317,1.88935746635627,1.9052786668901516,2.107505120516712,2.129421365953806,2.047010416096423,1.954109674991666,2.138141903394502,2.3864453516226947,2.0582540686658044,2.53252081823953,2.264665226413616,1.8640457961136365,2.282137605884432,2.2821563943890233,2.3621189098899213,2.3515734191186923,2.2514888799656583
2.4237292811877995,2.2171943939092094,1.316609281076918,2.319474205274096,1.9071547848641386,1.9435106407283065,1.816750174834091,2.1881123259488824,2.134240306387858,1.9259168627004364,1.8282883493003215,2.0552802497742544,2.1619195164077416,2.113947998388232,2.0772475814881584,2.1841394851457894,2.206787579527624,1.8946181887576536,2.045883517294176,1.6924588186884886,2.0615413963455422,2.047440739557701,2.211819118066722,1.74808653489141,2.1928026151966,2.6033627660042926,1.8050396544330354,1.486373821722419,2.2065768154052035,2.187170543443046,2.560044444287454,2.1449939362396155
1.8841457777540065,2.158519409689257,1.8692495394093795,2.0763718829931483,2.379241676879005,2.280747211074131,2.1502952799016963,2.2774123440522698,1.9706238800585103,2.208858939534493,2.2575275012641054,2.0924552380503827,2.0632619323521553,1.7238466285799532,2.05227991016591,1.9960154649075523,2.0159888404039226,2.1696048333618134,2.261119567315393,1.6903082471160222,2.0538503234317522,2.2279223125210965,2.097035857124415,1.762906037341443,2.1376094114149677,2.480966010628862,1.7953388386326594,2.0692850525107938,2.022425036670953,1.9584988861479207,2.143304977286918,2.282831074424327
2.1578880336237494,2.472200816341318,1.8805388311603042,2.3123099372589193,2.615464155405737,2.1729781960415555,2.114996847335751,2.0325950958420718,2.2826129243476694,2.0845260339632694,1.901207502303778,2.186598971987873,2.1474969090310068,2.2582430817336188,2.4996491784932817,2.698061034555183,2.701447427724032,2.5527771774613894,2.595767686969833,2.395096997899518,2.4962138620256353,2.124558994637549,2.158633403851087,2.028830757270378,2.443425885760889,2.7410631715432303,2.416354031702855,2.296487417520196,2.628105913277899,2.5783485069632883,2.8333331260432844,2.4037335037127474
2.010194307113634,2.492143888554872,1.849625561186648,2.1720387087481408,2.0712412062116825,2.2380480462372123,2.1432957656040523,2.1869626367977166,2.7585903846024005,1.8350906144242076,1.8087137161301852,2.2530552531910284,2.4456925870339727,2.2327968810442282,2.44479951864112,2.3446452739548542,2.384987159905132,2.470293658114774,2.120927842685985,1.9181021356965964,2.0683575722638547,2.1051071270835195,2.3194482811047727,1.9472972810929372,2.2110939060937724,2.1186209662729114,2.270853507301443,1.9319434046274002,2.3182318944823512,2.1801814731293088,2.7983528337963253,2.0638961384687557
2.25157029003993,2.2277721757940503,2.0286096562792157,2.132535498450793,2.153922782653095,2.121023586925289,2.097647985665875,2.0082091007429543,2.305621818637255,1.8909472363475155,1.756164006746687,2.29515856056211,2.461435258832511,2.4605569995285776,2.2994490014153044,2.4554416285756995,2.450210163519283,2.6826870095040256,2.2310985296552746,2.054146697299325,1.7256849368008955,2.1369184457596444,1.9999709562582653,1.9887070284804653,2.242046364311652,2.1611873614485066,1.9342623762198303,2.074506925796237,2.3196374283250116,2.2796349427295466,2.3400350942876624,2.2220117128887864
2.1789823953131906,2.0066641342568934,1.6024854674800242,1.9540162558825767,2.2454602479811436,2.1370582526025963,1.9331426755093755,2.1144491763078075,1.6456586266289757,1.82181370561053,1.8613753902316645,1.9317656912436376,2.3191733806418577,2.0853531884079093,2.5688498904707706,2.5182855520316103,2.6318440298993666,2.41200900485226,2.2251579843959517,2.2572686117168623,2.1750274146414332,1.9775534990588253,2.5339468102471705,1.8409801799443306,2.4437238096580343,2.120582008203999,2.1508218386787608,2.0682398905755788,2.115877085018103,2.109265818470603,2.2185864983884858,2.0760195021950523
2.3699575894724614,2.2175686422840597,1.7862992670353337,1.7693115905877923,2.0692281883446233,2.2014193895659804,1.8375415579318946,2.1406419326269197,2.4361547491812616,2.107352194249412,2.014625674821673,2.091758761783397,2.4952489061475,2.5714523388175476,2.4482608886311006,2.633324025560094,2.6046532520522554,2.1590447466377847,2.259981530232901,2.0927109325294957,2.3313784121963197,2.181683631048611,1.8783019755816805,2.241773295764094,2.8219498063256183,1.5257195571737616,1.8546100116977793,2.4721100146143202,1.983133257902503,2.0963836865208494,2.206245851928546,2.0318727647484094
2.561365873360379,2.5171977701624426,2.008570580898652,2.2079057827419986,2.419902835845677,2.1215465359293075,2.156388081670484,2.351097794980888,2.2890088685866616,1.9217310390316789,2.0615385374267263,2.1745627798129195,2.3513600280715217,2.490481257436085,2.591639273104503,2.6052875710115235,2.5947743848767844,2.5272132506619087,2.623391133495027,1.638513972662032,2.463987602409996,2.238844188874955,2.271810735621535,2.105237656778568,2.381877424819767,2.175711055089322,2.1828143233229733,2.420401205294449,2.530993019285412,2.531928428122823,2.4781690931707807,2.2543836752799145
2.232686019734418,2.4868854036363026,2.3582047799502286,2.1362496555798898,2.292151766728526,2.3752941337686218,2.1775067076963808,2.407142015368057,2.367669488768913,1.8397239175488647,1.9132654026365292,1.9802190538635716,2.0384271747374614,1.8729915762432896,1.8664753558778924,2.176736112470974,2.225182167113194,2.0238645811723304,2.1723423839672393,2.2708518973688894,2.04376191296596,2.431946009083885,2.2574539851255095,1.9690394283302215,2.7630610715338464,2.253725996096124,1.9628041388080677,2.200991835463595,2.2681255028451095,2.4188041051790057,2.379720120993312,2.57998453375534
2.305508730856937,2.201823117001977,1.5078663252068956,2.1310247358885617,2.072445088713765,2.109426669667898,2.38702010445042,1.965516496099055,2.610626615371226,2.270733311143635,2.096081007711125,2.284980878720682,2.1644920143567505,2.2989019355590328,2.423410454327778,2.3658468059735562,2.365871329139041,2.1920478908396888,2.256792346900324,2.026550174229439,1.82305290115435,2.1245319716559266,1.987451941492104,1.9808890593496213,2.338209029347912,2.376098864981057,2.251789982960651,2.3254379762542,1.8956682572014687,1.8939114231962078,2.1335617477819175,2.5885208972450275
2.233331306545421,2.215011668046197,1.8722120594069078,2.4684543605921245,2.268000114522403,2.1145189076541766,2.3930575478178278,2.4176663578554356,2.2501680166256834,2.1426025188146265,1.8097792203059515,2.2372220599601644,2.1260473667739865,2.2704481395154854,1.6538226026522376,2.0861091561330105,2.1049763987459067,1.9438840139472415,2.2492592443049086,2.0494727228073577,2.312675151117032,2.259307260738892,2.155853067320869,2.1076964467668,1.983442155041246,1.8121016181306162,2.2593114844132267,1.8319105754753362,2.094828371334584,2.0571260394709,2.27938805138289,2.1158680786534614
2.276793725662728,2.0622754393718963,1.9077660036314827,2.204243748601567,2.1354541743600732,2.222643279285245,2.1750989545629826,2.036629274648159,2.0878584959340123,1.4926216793197047,1.9403010585450062,2.144176898948079,2.0194257086553042,2.233738196601503,2.3000943487570296,2.474668544325937,2.5140048806939572,2.2925683658653617,2.237773343210932,1.7125355835177511,1.8600230769247987,2.1841319114392443,2.262722737183042,1.8092667163775376,2.2739107198049906,2.1293084661360817,1.9163533033972338,2.1009905937255304,2.064964910510787,2.1021467589351945,2.242427931926137,1.9382014430691896
2.19335387129232,1.9567105317832214,1.8583104052785935,1.9808659597175537,1.6261973847091333,2.0495472709698546,1.630294531924661,2.0939973611219345,2.1855768731970686,1.9453921271492378,1.4055043722098228,1.7982515067956095,1.9708611925811157,2.0177335900698443,2.349312236519189,2.4095439498473423,2.442710597367108,2.156503783921839,2.0274165683832206,1.9426816752960214,1.5842038009685366,2.135080464873778,1.8590362965804672,1.8870223713283831,2.6042843839449903,1.9496758215818404,1.9328654175543771,2.5141451278501687,2.2073629340753427,2.159041791497446,2.12621887138011,2.1183318624321035
2.0864863532777904,2.292951003105526,2.159889836090265,2.2089636561390398,2.414579092692886,2.5037812711310146,2.0897644194721865,2.2992454058256957,2.4280688544383806,1.8790212405377291,1.7752689676596733,2.193522744312316,2.130758047444519,2.3395104927862227,2.594149520474123,2.4206847148326114,2.424509930968055,2.2577602840236835,2.221000789442687,1.8160799539159818,2.2137151163430993,2.3389235454762836,2.1487376893841525,2.1075571615173514,2.3309272354870174,2.5921745613355447,1.9830001883125876,1.9851086954978663,2.099377762772941,2.0514856863511697,2.0668726698276285,2.5768758317658995
2.2770502757724396,2.134439938537523,2.1525223285118127,2.2267310058290093,2.232228121662301,2.175201936563669,2.1619006890793084,2.0571817374824195,2.3896278991558653,1.9284418779207106,1.8151701602261368,2.0470139100629785,2.050592499371939,2.251448986823193,2.379135398463904,2.3484733158604043,2.37230842902335,2.373011131398557,2.1189740054175497,1.7107087218122305,1.9873878265855804,2.2227106583595075,1.7736699339946023,2.14530527468071,2.4110263041539186,2.2626757272223763,2.021539410315314,2.427927541363809,2.4940003912002746,2.4563873618568204,2.4199679216726158,2.2399640966128325
