Fp1,AF3,F7,F3,FC1,FC5,T7,C3,CP1,CP5,P7,P3,Pz,PO3,O1,Oz,O2,PO4,P4,P8,CP6,CP2,C4,T8,FC6,FC2,F4,F8,AF4,Fp2,Fz,Cz
0.9892203567877472,0.9778720499621942,0.9647236267078635,0.9617927674252841,0.9723848636146614,0.9773801830662907,0.9828430620306292,0.9753388302298014,0.9844397375934743,0.9639156090333213,0.9730444078903207,0.9835802404351222,0.9855663144492518,0.9650452153295636,0.9566329069525411,0.9560656258044198,0.9771443396164043,0.9765534849739098,0.9875132017979182,0.9773680752438128,0.9858433544103866,0.9863283640236354,0.9670121653263225,0.9797343999514855,0.9639202930541205,0.9751196059435635,0.9798263746073318,0.9870305727977353,0.9770979051445573,0.9794228870727528,0.9669955185567024,0.9846665372941847
0.9330557251374317,0.9844621263055657,0.9455637095792928,0.9647341742943439,0.9837797648718308,0.9793746352019133,0.9794901590567698,0.9487193096865567,0.9866331805001554,0.9776350755604419,0.9736653270072293,0.9890791750594189,0.9862421905963924,0.9857974731339548,0.9697014417590729,0.9675673868181566,0.9869085746532139,0.9870576151743764,0.986163334869206,0.9812495762881152,0.9900358300496359,0.9871010563970916,0.9832620315738293,0.948442235086541,0.9634017195841387,0.9868195852280134,0.9645516244763399,0.9744046447666583,0.9837910081937121,0.9847528835328465,0.9790055631655167,0.9871269214916625
0.8912941367000282,0.9619717354097297,0.887836967352806,0.9816892041837751,0.9746144841325145,0.9742972224546896,0.9743466993585569,0.9660494567816205,0.9924976989827275,0.9905148772890583,0.9814934310440806,0.9876512781490074,0.9737089724792543,0.9855281963799682,0.9466432280503569,0.950404126731058,0.9664527315552378,0.9681864269547478,0.9789396352791994,0.9487349174606639,0.963413679540224,0.9790495605270203,0.9740679217878481,0.9509301031712818,0.9753447011909413,0.9769022144678075,0.9763026235208617,0.9766127187226781,0.9835516404083631,0.9823371168945346,0.9801772062034109,0.9834187147397668
0.9435170657776404,0.9855671624299116,0.927962703630313,0.9743281349766156,0.9601998808344528,0.9811254413799804,0.9827473312058671,0.9930533771103511,0.9851802953170392,0.9833517465565655,0.9836530532603374,0.9874729356746988,0.9643363726366376,0.9807558214086455,0.9820089246011768,0.9821702401685889,0.9863774149414724,0.9848684444661847,0.9792035657085703,0.9749708963098646,0.9840161766439172,0.9752987308457081,0.9870132864301702,0.9463373660817701,0.988255320340665,0.9829812396182717,0.9671890575261028,0.9465665271149613,0.9844401061424367,0.9831923322952847,0.9806078859970621,0.9860142562433674
0.9375625581168806,0.9618991486184342,0.9158253114331489,0.9692953906360234,0.973898255990151,0.978714845563766,0.979544103579888,0.9724017192399288,0.9848358946865975,0.9846675248427162,0.9872290603864827,0.9848728085564168,0.9871766627463293,0.9779241834449681,0.9320430653917738,0.9382409863626537,0.9859718098398699,0.9869917568538098,0.9881071581777812,0.9908850117387326,0.9826337910390335,0.9921893879791867,0.9864157137438363,0.8913107622956812,0.963262048461793,0.9682395116355175,0.9724475123983826,0.9036854278426129,0.9805023406857752,0.9770108767511176,0.9707637753015933,0.9786923782460965
0.9674089743391218,0.9868022756222424,0.9500967295317629,0.9743558186083232,0.9879267771522262,0.9820605761904584,0.9618124618787449,0.9889837247472301,0.9808765769940065,0.9761065017544214,0.9855454094128487,0.9853805875844219,0.9829991821698003,0.9821872179448263,0.9623543744227547,0.9719276599681904,0.9798348912280029,0.981242705583633,0.9847933932044838,0.9412729759382858,0.9536813954673078,0.9788692524630204,0.962630719235299,0.9613414372086102,0.9739324465159336,0.9756197561661939,0.9522886865944221,0.9699563792828134,0.9799904910825158,0.9585924738828897,0.9879278014875676,0.9888779031514663
0.9301309422657937,0.9709163273797813,0.9876154956634468,0.9672505871607925,0.9913029957627163,0.966634488309464,0.9827127837727837,0.9834065374944085,0.9808411832822567,0.9738709512156921,0.9687014531807775,0.9836024079776274,0.986643986226206,0.9736165867346588,0.9831654191168367,0.9829401893854616,0.9763863476225924,0.9771197308212193,0.9569779878835668,0.986014350105425,0.9752233176733273,0.9796678067937671,0.9805395293690153,0.9453303545105528,0.9540875586575251,0.9877492068250425,0.9864798112171231,0.9413089716400079,0.9770850005723403,0.9788423407709522,0.9900486214860388,0.9794065702278579
0.9674339958065644,0.978873341583449,0.9773624693817389,0.9645752896119086,0.9852594044412792,0.9806431404871269,0.9767587132283515,0.9756114366452014,0.9837765980294378,0.9868816227623151,0.9752139025151182,0.9831168864956038,0.9895674475750622,0.983482282806511,0.9667521457293659,0.9695836648708376,0.9813947226810705,0.9816719083776432,0.9869968829867237,0.9883493688510282,0.9832718635441363,0.9843775320895152,0.9841637829534982,0.9817075279100471,0.9818719285336782,0.9823332114449177,0.9792848436275864,0.9824801080436392,0.9923538133827687,0.9945212539533407,0.9862322251537694,0.9811154904160995
0.9496212939480958,0.9820408503461743,0.9709450168979309,0.9767330397141627,0.9812961114990191,0.9784561234328708,0.985548523532823,0.9759170076839531,0.986169216662303,0.9801047810842899,0.9846229077999258,0.9867218297302477,0.9743100549283435,0.9841265095114782,0.9707452603316034,0.9721935932116489,0.9869256409000917,0.9869178161459501,0.9892512328748378,0.9874126601271757,0.983148355702399,0.9796869771854997,0.9867636090784716,0.9657014671803834,0.9601056573073491,0.9903089266807886,0.9907399997359281,0.9617259551315068,0.9814947697944856,0.9848717495029699,0.9836980199543849,0.9824966673037506
0.970490821061096,0.9895883405916936,0.9445959980895817,0.9476134730063435,0.9672472112428331,0.9683675871369004,0.9677120956708005,0.9841327979847972,0.99290232657216,0.9810725568961359,0.9665715603234218,0.9911222903250531,0.9849560375004058,0.9857898648553599,0.9829705432949308,0.9711929459208454,0.9813757098216463,0.9817142231586606,0.9870281606198297,0.9741314340738015,0.9846877791990815,0.978486762974921,0.9886305410639651,0.9860140936946995,0.9760234022151172,0.9440640523706562,0.9669474975461084,0.9812753715808795,0.9837286856929991,0.9811097198572305,0.9816400692442405,0.9856042197550374
0.9650873976092326,0.9821232499808433,0.9734226983665342,0.9661478439304263,0.9760401235312194,0.9848911768118178,0.9759158929814055,0.9717620314169453,0.9754244075912822,0.9849446706651728,0.9801723767131902,0.9888244631320722,0.9707682725277269,0.9907294816372965,0.9880749369551858,0.9898766912806632,0.9946475305556233,0.9951042885533355,0.9639571326836391,0.9827745165536036,0.9714349386177328,0.9812025086101082,0.9661386733358026,0.9860121651038032,0.977746288287831,0.9846040369426056,0.9626300609509659,0.9852798338773275,0.9829042805787639,0.9862831096280511,0.9418232885964679,0.9857242290977958
0.9842596764344493,0.9578871315433543,0.9775916703587868,0.9755418854095128,0.9880892200300819,0.9703613954093232,0.962222348089907,0.9713720951568318,0.9698250527643439,0.982339810692672,0.9821003745412984,0.9772350998697474,0.973136001083118,0.986357734770581,0.9870444043148067,0.9877441403169546,0.9752474886164976,0.9762921083016382,0.9869580560512383,0.9854479606103155,0.9809114866714718,0.9761608178719104,0.9792549111566431,0.986669384323235,0.9631399702248351,0.9873941312568592,0.9779925390916714,0.9666648627452213,0.9369244435526514,0.9123511720189653,0.9793338064565951,0.9859129839464499
0.9667369376506385,0.984752887839561,0.9760494322054523,0.9422148436602479,0.9883774701961492,0.9837343415816482,0.9840559435191748,0.9357063626734746,0.9811947499178223,0.9891940773937876,0.9695793927686835,0.9870292046724142,0.9929242979338533,0.9898233942808514,0.9808995131427883,0.9812585633940165,0.9882088753928768,0.988550399647912,0.9687568699514157,0.9673545882209066,0.9817169408496392,0.9925138225194112,0.978938833948887,0.9878490623548032,0.9708492444975292,0.9783463247670282,0.9719216604926203,0.98822055303383,0.9898896222519972,0.9927566168590929,0.9852461808353561,0.9520291691311807
0.9459651533728617,0.9807713171384957,0.959336262365247,0.8739405810164202,0.9891127305468161,0.9266529264166872,0.9871191939615654,0.9801646118700943,0.9808355441843972,0.9883285113170506,0.9736678615522059,0.991143748736315,0.9377312711793959,0.9902348037015115,0.9591977757669788,0.9565851106636848,0.9848853682785058,0.9855202994218392,0.9844764758700939,0.9679279820144591,0.9836039908178607,0.9292814880200713,0.988637221554719,0.9847665737224327,0.989960775457127,0.9891695515875117,0.9631748077953914,0.9859590315597306,0.9830652852757069,0.9898978232717606,0.9796948307590528,0.8194130493967476
0.9907696812986696,0.9898771499851584,0.9761091956730497,0.9870179738858689,0.9910666266343843,0.9842264884991584,0.9761701603208919,0.9742353105816544,0.9759784371431367,0.9802442857264615,0.9784983483628518,0.9789050364097625,0.9686691452704275,0.9835553942182295,0.9601722050934034,0.9582757238691927,0.9839247232525773,0.9837572919328897,0.9716659227934257,0.9888863621248023,0.9883279810261745,0.9747291498243446,0.9836814859612821,0.9726739101421311,0.9600283857616296,0.9820760200227215,0.98739024688885,0.9706112583205807,0.9891355219323436,0.9924349664424332,0.9836723428826349,0.986524484356781
0.9769544483451948,0.976325760234805,0.9567061401936698,0.976585662289565,0.9891276191573667,0.9541481439445262,0.9777685930785431,0.9807491558233883,0.9941374761020746,0.9897021838229136,0.9817440670348387,0.9916840845471168,0.9829141482412116,0.9882358348926092,0.9898670979404327,0.9905729368430911,0.9855863313768995,0.9865633354375901,0.9772775180632758,0.9840389215267744,0.9904585353376274,0.9920688687360965,0.980436374350182,0.9747310130687938,0.9750515168075818,0.9903768009281297,0.9740487532521859,0.9749266461597149,0.9889755453723754,0.9915219820340999,0.9888349892327856,0.9848673972613532
0.9342397992553868,0.9757156024242272,0.9694412518525697,0.8268468314539639,0.9753381982318664,0.9823110567937342,0.9732735057287314,0.9733893725609909,0.9864433260453126,0.9775490810888606,0.9773152394987936,0.9795097651487121,0.983993758619779,0.9838708473997914,0.9901809280596015,0.9898950555812378,0.9781944517237151,0.9774502894390971,0.9787998847094629,0.9823940647706706,0.9879602157115306,0.9830478943220384,0.9602291481523814,0.9845194776810854,0.9815116483406225,0.977036463155454,0.9753323653181664,0.9859746167696355,0.9723519344109127,0.9824717059582541,0.9665091375704603,0.9839412182886936
0.9705203563456979,0.9731292632818209,0.9406823124277477,0.9152523590264126,0.9795637283190438,0.9857164323174674,0.9862242899597594,0.9852541967189974,0.9799228254019924,0.986278065292122,0.9886571121387248,0.983262330913676,0.9853717703659627,0.9700029531234129,0.9725870772494515,0.9720898827893746,0.9804340837005603,0.976955174502538,0.9751994065793373,0.9789367694256652,0.9766427287287214,0.9851718470427078,0.990696742604285,0.9565880207787015,0.9573979216480978,0.9704185075887123,0.9873868880718988,0.9782403659105271,0.9863567620910538,0.9853661415810478,0.970842978627284,0.9636409595186932
0.9862445236423877,0.9901371952542194,0.9793361537319107,0.9900838185799338,0.9907114126414839,0.9720114921204491,0.9366512972254603,0.9818685382005226,0.9834244626874615,0.9846641696358177,0.9825490443213032,0.9719694923059492,0.9554442116265347,0.9808589970768109,0.986133193776787,0.9857657377302323,0.9889946590394683,0.9882871309714385,0.9865260857526175,0.9791981529854623,0.9887057092271253,0.9892889861135793,0.9906781289678203,0.9851459243755805,0.9795365000627612,0.9788967013262942,0.9806491546080479,0.9767368997064807,0.9775987950322899,0.9609663863672685,0.974845327545303,0.9468645206621035
0.9842509281284665,0.9837969449330338,0.984426188171698,0.9721521175210645,0.9727390995462873,0.9813506454278612,0.9832719303807804,0.9751407841623839,0.9890282058098107,0.9787281002976,0.9787910496515387,0.9796631163697219,0.9765907390685112,0.9792028262711947,0.973448855215839,0.9728054051155844,0.9782162182028499,0.9779461947446331,0.9810689686834368,0.9755591169105217,0.9795077094570207,0.9903321146864551,0.9718613958684742,0.9182480873532454,0.9463164331576789,0.9845260176374044,0.9867537987559417,0.8927956513897131,0.9649608331484926,0.9711586652883117,0.9788325715920017,0.986936994951321
0.9807136701204822,0.9844654279114574,0.9827868099667657,0.975065991999425,0.9888740481530587,0.9884078513060792,0.9824818359361345,0.9727601595413421,0.9808272413960608,0.9862503843406002,0.9816461687397792,0.9807689882368741,0.9768692552152736,0.9803623869385977,0.9803227175560622,0.9816748538290428,0.9800069582089475,0.979723578356434,0.979030008686247,0.9730577918227421,0.9839542438995343,0.9766708611148389,0.9675983033422347,0.9796460528103843,0.9789550629542875,0.9839825617965964,0.977658806426167,0.9805051375225026,0.9860839586034047,0.9945010914598924,0.9802614909706565,0.9733171688219509
0.9739660305929643,0.9829464512569868,0.947794381652203,0.9295634372277034,0.9721411730278211,0.9790433849706501,0.9849269354418271,0.9876743603983424,0.9899142520088808,0.9820456102889442,0.9918295374205548,0.9928414453680923,0.9885463710227723,0.9839676218402825,0.9742500853922564,0.9740923075221465,0.9616511538374666,0.96187710957683,0.9840720034877637,0.9793476120134909,0.9619151868100564,0.9747743518167781,0.9740390390560812,0.9888611817351016,0.9797616330093672,0.9432754603919398,0.9730497555395753,0.9780157116545857,0.9890278519655121,0.9930041684551069,0.9717857645753212,0.9883468189238441
0.9817980601888769,0.9817988951033526,0.9615940038741676,0.9837949739364334,0.9756642944214922,0.9865778771045107,0.9882874939340544,0.9826560928429864,0.9906562557071518,0.9830993527804344,0.9836679039200277,0.9852571795005931,0.9848615948470483,0.9903933669976406,0.9816253989080614,0.9830604609171277,0.9841944707789064,0.9877817735678525,0.971521658983516,0.979790902181128,0.9837210357862944,0.981259497306085,0.9680275929048096,0.9774325137074429,0.9856007706576517,0.986455087130035,0.9789733005271748,0.9278337534921177,0.9841253428705229,0.9741884819843436,0.9744158154215782,0.9835442667222508
0.9586713930569523,0.9822246065398218,0.9230541763057236,0.9792070587996796,0.9869160113364427,0.982132884698908,0.9845036886779023,0.9727777485492561,0.9849414391057153,0.9796540416702041,0.9903110215749342,0.9703487678090527,0.972943652180937,0.9647582393764065,0.9719496070194708,0.9746081846636734,0.9664211829440503,0.9664438255498496,0.9744861518230655,0.9743704152266569,0.9855767558557641,0.9852723724016813,0.9857899141439931,0.9602298872598893,0.9660414637280395,0.9834880382526731,0.9809182068408776,0.9295435880045068,0.9828227448035024,0.9821741016340049,0.9753831455916793,0.9904899391194284
