Fp1,AF3,F7,F3,FC1,FC5,T7,C3,CP1,CP5,P7,P3,Pz,PO3,O1,Oz,O2,PO4,P4,P8,CP6,CP2,C4,T8,FC6,FC2,F4,F8,AF4,Fp2,Fz,Cz
2.3433533681748813,2.453756874807586,2.3000512622549367,2.1433042203973733,2.167033549837664,2.4264835000773086,2.1439074200243304,2.698592072843138,2.5862545488562847,2.13162233565597,1.8768234850075842,1.6073941766794706,2.282433525184685,2.825932699190225,2.3852734378318523,2.3894740075120464,2.343282703859327,2.03180674736695,2.0400502131522797,2.4378710551518115,2.4384644780272713,2.438418323127951,2.1486598531285757,2.623874103923236,1.8414189076032763,2.1542415424925823,1.997060771740823,2.43766813972207,2.3143064335299113,2.4937736623733344,2.251702984344529,2.3361088116700914
1.798155606078633,2.0364788548863935,1.9830097650002168,1.6900157078251203,1.797471763357257,1.941583355853018,2.0573118910662838,2.411332007395785,2.3131792940191005,2.072434647070802,2.1270613786431505,2.1175452669900987,2.2661755062030773,2.1955050838472627,2.422764555023436,2.4309290455751245,2.4142691508041216,2.148295785195609,2.006697261984661,1.9189627858233307,2.026909089767153,2.486325928200543,2.011328756910958,1.8733126742977537,1.809485571329361,2.2391761961878536,1.9496879055275775,1.831274900518445,2.1105838739083196,1.8082556324696522,2.3925186410180035,2.3216036479485886
2.028074694532916,2.0882936553127096,2.3374299936872793,1.916128750172523,1.9329756191947616,2.111747846687502,2.012545881658245,2.242938937431823,2.4876319232595323,2.1285043292731856,2.4271150435878406,1.8684519430414053,2.1195018393145433,2.3217347203712233,2.6737846658200013,2.665613349580553,2.4813621917397928,2.525765938030791,2.317888165452056,2.4647781738612085,2.259415552599726,2.1015653200942017,1.9056769005860534,2.309216439607471,1.832479588609484,2.2576238159097897,2.114270275207687,1.7699915149897036,2.1083308592715997,1.8011624438714016,2.2411325237969786,2.1195427805908786
2.117334105314009,2.2698805856851587,2.101632493601944,2.0650547253571943,2.0791894959770407,1.7774132423196154,1.8217033283666575,1.999749483349952,2.2271670062965665,2.113524085819584,2.1684975327991225,2.2191638919525265,2.1628512382067693,2.7986109951796614,2.5627217768303314,2.5535181573161947,2.4420595257589603,2.326809648019688,1.7975083402239418,2.0050099233729055,1.699015241049104,2.153063990290709,1.7906393795656372,1.8332176561771196,1.68274411947096,1.9159756972953523,2.093400174976427,1.856666968537079,2.1905770775228857,2.2279029745742513,2.209074485003483,2.1434633578809423
2.1617203192247256,2.2552827163424807,2.252465300104389,1.9376469495800948,1.9228493530189186,1.9596882428327291,2.345495700677156,2.357508683570785,2.5470748795084686,2.022797463483888,2.2466389959282345,2.1282787573217568,2.401867556790063,2.0370302204863915,2.2959967274631725,2.320979369644138,2.356346491787582,1.9314367329450437,2.310973013546967,2.520676705035327,2.405297124316811,2.2371982420762726,1.9399945058128718,2.283274039427413,1.9637670848064452,2.258501150450185,2.1728552583201215,2.3088371513615473,2.1448855636018807,2.190868087836128,2.4488541262805956,2.339117006753214
1.9157548511016853,2.128318802117597,2.0107559233263443,2.148648215149702,2.094473806125608,1.6109550854027213,1.8429556317233111,2.171541460356357,2.394457191357653,1.620494198399089,1.7771430554099623,1.578465547455349,2.383831992230341,2.5615257381945726,2.252221891123919,2.2527100828787394,2.3322855646084797,2.353157647417402,2.1105002519637703,2.015287224915224,1.8155356107859786,2.0178491212475955,2.0293409403747216,1.716105815980365,1.6461479366625469,2.0173099550603877,1.8835276959034606,1.7844733599837745,2.289530724147423,2.136783388558609,2.21099669201673,2.3499543618587553
2.181493343222387,1.9562709200092383,2.4083348107578884,2.0034933591814905,2.1459638553944043,1.8693630191996653,2.028271073912165,1.625172916046099,2.854890407720895,2.0447741800791843,2.4071463954902224,1.645037519715626,2.212335913352116,1.698790980261818,1.9204482721783362,1.920534484172322,2.2191079457524765,2.3489463143696967,2.3332231455453716,2.2455430090115853,2.1928711538602745,2.730434276649505,1.9519428342957335,1.9829074197809204,2.2397327643203555,2.4243412275200003,2.318129365524718,2.1910919736124557,2.0086924723720836,2.1634847304729248,2.752891195843887,2.9706052772759532
2.0300178022766913,2.001738221370303,2.1601033176084936,1.7069390680446896,1.6983834939693003,2.1184897619469782,2.2468010213946603,2.08608376063454,2.6120636429795647,1.7542177764732507,2.1259752688912568,1.3926615410841805,2.41356282026157,2.11113725449175,2.496030266175656,2.539308056326022,2.377004263680367,2.539890343773797,2.082566531105762,2.3339180432546436,1.9408691810847183,2.437976901947174,2.7790651643442934,2.2369903178343415,2.0134672324709344,2.226314276859822,1.9844038772393708,2.04278152829058,2.1315809534958188,2.1387689257502926,2.2491074483680205,2.453188327141146
2.3608166439834894,2.568207578241948,2.2548524127329963,2.001968262756789,1.9991303118275041,2.105696939305713,1.9703454702845362,1.7564285688118202,2.4329342750114638,1.8528205792313994,2.137124703202725,2.3400561494861583,2.453842317130415,2.370547555186954,2.2543830021718723,2.2638617543180932,1.9626997828995947,2.2417393743465373,2.6914495149919295,2.418684556748069,2.1116321585605182,2.475603124164445,2.080367109114776,2.2794558278394335,2.0166418650982223,1.8759374527276802,1.9378566844569682,2.2845645513555937,2.3670909578785495,2.293497149509149,2.5520965960560282,2.447965506065448
2.0045051749393274,2.4703893007980144,1.8637662878768784,2.3376625747331587,2.3698652509298457,2.1341594126894243,2.2563395536295285,2.807319950437495,1.807313278802107,2.758770130981281,2.5150622495831962,2.508562053755443,2.4379647253348935,2.4482525608561563,2.398559278530128,2.387953909596681,2.4096262317367234,2.476759340731326,2.222083560215331,2.640797652965375,2.1168922332250903,2.310933160086404,2.174574235244309,2.732279243224653,2.3830325993812904,2.4646909796383594,2.238634569854961,2.8263889025896454,2.4777924168035232,3.0033300172432136,2.427105767883997,2.4722431393779707
2.2191248458473605,2.6847798251406716,1.9498824477661052,2.039597040584028,2.010597848196583,2.3513383196089848,2.1601387803315575,2.2450768399738625,2.4984936300872125,2.2206963966482376,2.1144186744488294,2.141285905855041,2.6585295716969064,2.3717915548699446,2.237011423898233,2.3233583929588013,2.224345652176608,2.4734820165008555,2.2881148083500484,1.9304355772232658,2.166285252130355,2.2351584624022434,1.9559401843540485,2.1251301103025035,1.7929719085095681,2.2305632518135297,2.0160224774242823,2.041894214710789,2.7098461959834346,2.3896907817503936,1.9700792575220878,2.555299601632994
2.1133160653496645,2.529782539094588,2.4389625363192997,1.7886776575995533,1.8026406412330727,2.4397410310515406,2.371910171129868,2.0448834517065273,1.9766168124040795,2.0769560486207705,2.220249330052173,1.6102273822262614,2.0021403464322356,2.1151902324933243,2.3726246886453923,2.3819165483446807,2.299742818333519,2.010292008919777,1.9635498499776984,1.588871363905403,1.9811616717734377,2.235408105779417,2.3259194633941775,2.1553824766917127,1.930976552585475,2.3596563977481115,1.9684236056679205,2.279724119965263,2.544908274190064,2.423878662868637,2.13521152500784,2.3787663632476472
2.0975452646595936,2.379858944302705,2.1576613192680374,2.1209345909708777,2.1270108638630534,1.3486937969939465,1.7970281068767635,2.067575200644672,2.761522777027825,1.6751665061905119,1.9863706380738646,1.8176898737892397,2.0610189874782034,2.121654959407148,2.310712363612005,2.2918298466193483,2.412741404880487,2.1205772152372075,2.2859687701467943,2.4867951519104228,2.5475525769359013,2.25789836068444,2.3915111489289442,2.7092289943589463,2.222212164919458,2.1047882307767387,2.2887706733241235,2.159734609245443,2.8501211795559085,3.0334963864300986,2.663450485597205,2.2195652689527003
2.6287709895675726,2.462544116952346,2.3536319589655452,2.3216521345335543,2.409687606200778,1.9740793593466317,1.8804398680952672,2.2549527962207465,2.761224013926505,2.008619738477539,1.995404854258377,2.281574145584132,2.855533081028628,2.6910457040391336,2.145021072131631,2.1660549583404847,2.3629417653385882,2.3913329695969976,2.2436693872327633,2.507948482907869,2.250430217453438,2.4265941796198702,2.267420503737861,2.273793690507928,1.9506732692053093,2.593817804668024,2.3388307815530687,1.9377826361513861,2.6304452890466985,2.372889135751005,2.5565724352413914,2.499256362182155
2.1647180654515816,2.085655789719558,2.2203694115713812,1.8034126315107066,1.8568284835576585,1.8815910108210332,2.197255470298531,1.5522792508527543,2.2505851432754578,1.6559807609250097,2.006941426313337,1.9182835195534278,2.0772063559854805,2.369079825842592,2.2981963513410957,2.290231923021701,2.4504244629783645,2.410119958814511,2.244828153509456,2.1552896443376857,2.0275299020873634,2.309913217825443,2.182493406831654,2.2907983085816985,1.807898449998642,2.1302010622590966,1.7259217509046998,2.279803607322528,2.198644276854458,2.637878006122569,2.3659850744499153,2.239090210231372
2.265445691482147,2.4901238561174974,2.101924512277144,2.0923556238025736,2.108561609697521,2.2721098118675984,1.9314898869452513,1.7811473445957,2.128206488415481,2.0853775719097576,2.3259386542778033,2.235626490994102,2.3203500066035385,2.439240805363195,2.490618675754109,2.518505369695219,2.568031097795509,2.610357780093394,1.771165336642069,2.1421097888210614,2.0471626197049604,2.328371360861448,1.8537111993271143,2.2507351637270476,1.8534562965448853,2.3817445727296733,1.937474432951196,2.169772909935611,2.240690725630835,2.3584691468034245,2.175883327274697,2.4203252065668086
2.330339809571087,2.20758073199573,2.8051378643665545,2.3312531588631993,2.3408115666354132,2.449841728015028,1.956139647028864,2.284954939469533,2.1615964752163737,2.05571964386512,2.36920852993562,1.970408879557063,2.0372269817638693,2.2320532434189215,2.1287969454333044,2.1695263636012587,2.494938177853758,2.473596031396182,2.6112056485468003,2.403977537021093,1.8602103584265066,2.02077049912479,1.9800658236344462,2.3246162449099463,1.9182496901311963,2.345871453746078,2.274515982632404,2.373674709802344,2.5169245015485346,2.3175081311623376,2.5137818253774533,2.2295085547302143
2.245073423939732,2.626948150218891,1.7616498696755938,2.127278820388296,2.1616293008504117,1.7898593612314253,2.192975780291068,2.19264130191611,2.714188396868208,1.9873232872425834,1.5388368686931992,2.0489785839933803,2.1755095325537095,2.058010531790366,2.5412146345617685,2.533856034257079,2.3694073357185905,2.196156533192383,2.1299283750531606,1.9048493460920837,2.0342195334852615,2.3931279864428046,2.0400244484787646,1.8191230836528514,2.109254933682337,2.1727704127412384,2.2769848475021672,2.4142555679339406,2.479186559944939,2.1715030532155093,2.3531051036641317,2.2225553850441044
2.530545086770719,2.6148213513091663,2.365232482540894,2.1243170616555855,2.057525059214392,2.1989153414721607,2.0836280520251287,2.1556038539591773,2.5923105070453443,2.4344274373192705,2.3013311464911537,2.4277127370424623,2.626895146379372,2.230213139748471,2.2654188183074693,2.2845591840361354,2.410993961690691,2.554945536595604,2.5517749804758725,2.3627174715621013,2.1051681063823615,2.6911393435709696,1.956106482909647,2.1462186785975566,1.6223305140220439,2.393855173611015,2.228997205591007,1.9365747221905787,2.787541772521029,2.466339616160878,2.4964660907956318,2.297545389412115
2.4247752764826727,1.9930081922022735,2.3562060392957553,2.477257829376938,2.5107534852834323,2.159372839596531,2.086883798554484,2.1808045187212524,2.71913752697844,1.9512702002894626,2.0015734250794592,2.0616353185010947,2.51004184045123,2.4832714937170985,2.6875999298693034,2.698769000964778,2.4149569925346226,2.6434466328438506,2.3550270401931805,2.4775254909993056,2.2804821367710937,2.3834184563668823,2.100692744558724,2.520091740835927,2.3008847494312805,2.30585244104531,2.3052188723727016,2.5072754960903874,2.211854339970257,2.106507433399377,2.1191639572614647,2.523797217579645
2.632403297313071,2.553562674921028,2.1929874636963875,2.029521964914281,2.1018105796447495,2.2809699842328914,1.9956677216064043,2.420493662667926,2.2391280969828276,2.0961082097873147,2.033151687836651,1.9902973691184982,2.1589377593159544,2.7161658914224427,2.420492644654556,2.4061394086269314,2.2084552896733474,2.6404351428703534,2.28963120907962,1.9487956877135422,2.066001775852685,2.8877582436454747,2.6214665298960944,2.6118367669073974,2.078548561854429,2.5886521751016938,2.542649361593136,2.4792884719271178,2.577420190308981,2.421055859057729,2.05636318933184,2.1604777844526017
2.294438234998652,2.3341070851205417,2.4413964177820486,2.1864259746389925,2.1765839537052,2.2839021196114584,2.2418637686840297,2.4282864465490444,2.2996949170555108,2.2713794894048114,2.3136087770076506,2.2576685159476937,2.6845857730873925,2.5000419288852953,2.462968943523666,2.4795223615226947,2.643209643802822,2.3519824502981974,2.3526229597578374,2.185711476340577,1.9037019431982933,2.6796299578022964,2.239047194372986,2.217670987029264,1.6322506434851647,2.737524432110472,2.371296431324582,2.2736027129895646,2.288567062269362,2.6398422605997256,2.3410469796087128,2.5151531524405595
2.3208416894508326,2.1977841064101167,2.2669808870167008,1.9213796908499834,1.9878292869243914,1.952252192760231,1.7919637147066347,2.659629041099779,2.734726627775018,2.002991704451264,2.2253809216505984,2.3869473178526976,2.010325362085491,2.40655753740745,2.5822846897543834,2.6139835049347497,1.9579441671762174,1.8232744774555578,2.1063951406938597,2.059258970935226,1.888979141994691,2.3989424652189966,1.8211919679834747,1.7461676623457987,1.929992711352561,2.3286171173787675,2.170876047941346,2.268729377540891,2.265089184497974,2.242836028789679,2.1828665042213484,2.696462226563675
2.307269993651652,2.40506042969872,2.232376557338507,2.142141558191322,2.1409069398205913,2.476751020188405,1.8755197958337566,2.4481712336769097,1.882637779709823,2.1185209785561394,2.3656741649956303,2.048490053482113,2.3047423716327904,2.0820527032990443,2.4524269767761315,2.5119088476464215,2.4613992950378885,2.303872439458012,1.8979899941082725,2.1359648165948117,2.3181443141479336,2.427628758891304,2.3975233943174605,2.5872537216611375,2.497133664526304,2.3507852069662496,2.3304178255806156,1.8928470493402136,2.7807266892985303,2.100770117539141,2.302113743290423,2.235127034530448
2.680086785696569,3.1509386233828973,2.0535425621601777,2.6683290835089695,2.621008158818592,1.9285293550930034,2.2723771837880578,2.279588374841308,2.46634663005337,2.3823233524276577,2.258223804081714,2.2870665364326634,2.2145180978090084,2.2753433416789757,2.272955994404131,2.263215485692514,2.433968517957486,2.4598948332535566,2.273155779430434,2.614658807653224,2.16395637179717,2.80190861657939,2.1447827830714985,2.6457593904305856,2.0654840945729824,2.6580780332400233,2.5585911562534207,2.4497795477559188,2.8928348879332564,2.3901272485007294,2.4575623135345603,2.492969431128821
1.9148641866073446,2.67711759813686,2.148026164226768,2.0203218568978967,2.0108657598748865,2.114265209680686,2.095330130465043,1.911050158839589,2.7867342732712332,2.3588360598200047,2.436170769635374,2.1303524550907413,2.4686666910143895,2.619708310263442,2.4788362211005155,2.3407393017438594,2.326865346047503,2.5228652228631994,2.227193212465428,2.336780055182986,2.0015049097596194,2.5245782091011466,2.089336419937344,2.241698727393245,2.130200586771267,2.181143204492318,2.025897552054426,2.701259840576441,2.2874965121393434,2.9349956610716377,2.4760495800419395,2.2281378983502114
1.6691951475181472,2.085844376435562,1.9449708612483878,1.9904915951653053,2.1370631674695195,1.9882568091524715,2.329328254047046,1.8958573013034759,2.4729260819664214,2.463141920599769,2.6235491430519002,2.4651175534546663,2.3607014697148188,2.289081666395377,2.6513662592949325,2.673482569029445,2.6252081806273613,2.263234648406166,2.1247770859230406,1.9277738669099667,2.007555749663259,2.773041590700428,2.3635738816448155,1.8393035382265412,1.8571189894121058,2.3380033694473488,2.0246332927683577,1.9081204607075823,2.291420778702535,2.424654935512742,2.168348949878912,2.468746331859858
2.2237222169232087,2.2407649474768228,2.1016376630490514,2.077698592553835,2.2440704377459855,2.319341937667316,2.1354110949365217,1.6683923932522726,2.7095191800563403,2.0142970845413077,2.410185070210787,2.56316917485653,2.708202728102737,2.336512205118872,2.607892584004685,2.616810021338963,2.526024813980914,2.5045567943403655,2.132492929672923,2.3428012906967113,2.352010001380248,2.5674283447395583,2.379761397708364,2.3476403066986378,2.1155549162735623,2.5445691508222397,2.533179155280921,2.377189953738129,2.67354067605718,2.6198186072526743,2.249416462728001,2.666600584139517
2.2172263429488495,2.2899369590560963,1.8665660586237849,1.8466103739591653,2.093843756600671,1.8287616917469425,1.8562592580375905,1.8324966918743693,2.6080077623712543,2.2510077782224736,2.0096605057231107,1.9898878373388866,2.4580649999687227,2.6567670526187563,2.413239591940045,2.4042054814246216,2.376679133154254,1.978991281357265,2.0352672702250842,2.054571865477251,2.0914963897947656,2.7733292173201693,1.9547030199798017,2.1703345210197793,2.1240749331079516,2.494984598094991,2.3558158874647095,2.401813163190779,2.446871378729126,2.2691056418082725,2.425376957666362,2.39144716735056
2.3437003005412325,2.110579211112852,2.1961367639058618,2.061475292959188,2.1631510315813123,2.0696733935190292,1.8804190159645497,2.178925658676406,2.533821278470375,2.1150365438268053,1.888887163820511,2.228249548601709,2.547699992211321,2.148046087710879,2.4954508819073116,2.521424284355661,2.322371682174825,2.3299801960216735,2.212345277627734,2.1778527624282566,2.106091964704013,2.3310905417551866,2.0759136488915964,2.215362256023758,1.7544771455935104,2.0331126336166974,1.7845190088561085,1.9958561204538416,2.0317171671946403,2.118969479254403,1.8789502169729184,2.2089007518682453
2.1585886462352213,1.8832061512609686,2.0683205184556503,2.099722090397532,2.161180863657202,2.1452371148931815,2.4502898874394266,2.3654037432610227,2.2569113013118205,2.4349965503448048,2.4972975364813124,2.2031727029521404,2.2768148851005123,2.640804907051705,2.5093525501136,2.504902285679939,2.7789751942076664,2.3022668539532636,2.3944764510705636,2.276823874475195,1.9626349058016455,2.5228219113410595,2.1407317819438636,2.2326705397642783,1.8956474939894599,2.14793879135681,1.8913671130345506,2.498097796126559,2.3967429554429387,2.541141442146802,2.0019105165363,2.7480710722505504
2.0107384327336,2.0936574051027703,2.0631273896969056,2.05569186720857,1.9135354685434673,2.1249019825774824,1.7637418662916444,2.3642217486327493,2.4968862135280676,1.9693025843395335,2.0777616963092234,2.203769429735686,2.4740491046489996,2.107148402650225,2.1958908878361547,2.1741356777041014,2.2966201827377755,2.462781819164843,2.107336903243957,2.389313470655097,2.5039271068701763,2.6405522656694136,1.9883695730760143,2.2310567997534423,1.8232345217717945,2.35050939198057,1.899230312253658,1.986162962811493,2.306691060347913,2.360531861215744,2.1385449250992807,2.401410333323205
2.066740524983199,2.173952005892512,1.7277226627490054,2.1454554816942664,2.2886168902801183,2.1110530254679065,1.8965548195758322,1.941382436159088,2.313284712784048,2.237057670907487,2.186358162083954,2.5472632826597965,2.144843743146902,2.4633195102453196,2.685693014219973,2.7239436310931815,2.500318803330367,2.215484612166711,2.0679434866161674,2.391016817887805,2.4083069735405145,2.2347462052670233,2.28387509166153,2.4759774420745377,2.030407623497109,1.7634990192053277,1.884805261959912,2.1463637958444726,2.1707402398621616,1.9914559532600247,2.1435934707328776,2.3100093370489945
1.9148777837231445,1.9530141203952938,2.157731963005397,1.8785698430287305,1.9175208968046582,2.065508179164851,2.324847992478195,1.9671504099364323,2.001848447696603,2.0057794727795613,2.534793775987678,1.9099805473365148,2.1091887530083304,2.1823397845593395,2.1229233099169678,2.097624154209175,2.5437631660137967,2.127638998993545,2.2697591354249274,2.05228864562042,1.6665886796900529,2.0853920410979936,2.0854004656096756,1.5594360152012068,1.4081534642700375,2.2627533852366075,1.9162348630059678,1.590122297124493,2.0428699173465468,1.8680515892965588,2.2066074121306567,2.337336376969632
2.1577057459155147,2.247784736109704,2.1007356802297843,2.0454540622651094,2.0953816398794793,2.283343036681973,2.088070848610663,2.0298499583257925,2.284907709663137,2.2720117446225125,1.8319630381269612,2.1513534486323924,2.2929834692356224,1.9974438109903985,2.2380301018532585,2.2338620297940617,2.359711527553444,2.6010789001573027,2.4096223131920884,2.5939239742320837,2.444161260772253,2.2908297109400646,1.9336701520317654,2.447792003428794,2.0423679111619166,1.996291789111366,2.0639482342160482,2.220737895768104,2.1102558888878544,1.947978731571798,1.8908006990341588,2.389862021518551
