Fp1,AF3,F7,F3,FC1,FC5,T7,C3,CP1,CP5,P7,P3,Pz,PO3,O1,Oz,O2,PO4,P4,P8,CP6,CP2,C4,T8,FC6,FC2,F4,F8,AF4,Fp2,Fz,Cz
0.9787240528842288,0.9757411541955806,0.9507093089956633,0.9522743279080964,0.9762612170149032,0.9517177269977957,0.8567278900514118,0.9882263790760539,0.9846999963803708,0.9772513073234473,0.9826564887764202,0.9752370991927813,0.9754010016932699,0.9660378263474626,0.9871748119204466,0.9848712367773667,0.9856579108608898,0.9860910309054747,0.9878128391629604,0.9287066545141729,0.9893064542838851,0.9546859155137065,0.9069528152937708,0.9749608799342321,0.9847100888965501,0.9651475358016657,0.98657015967565,0.9818987992922638,0.9896246554173158,0.9907331762140233,0.9868034413281018,0.98331428143923
0.9760197614211096,0.9816213223766294,0.9723883049148732,0.9722629332920832,0.976280721515784,0.9699364749880284,0.923285062318812,0.9862754136205267,0.9738485418900326,0.9644850218055019,0.9759529380871389,0.9879604833621247,0.9655172023795989,0.9884800720246295,0.956443551199248,0.9374820669850507,0.9600488726347569,0.9600645686296365,0.9828412854814892,0.8684856717370759,0.9821446731247917,0.9781530038693631,0.9778730388195893,0.9399128254063084,0.9728412576698539,0.9761059299109541,0.9928362813408976,0.972093004550639,0.9846617341433874,0.9792458296119526,0.9828692261690495,0.9714230977507438
0.9729318215774037,0.96828812267362,0.9642591574394983,0.9197062128909412,0.9876372372879902,0.9287789301228224,0.9454957695020795,0.9803590088594666,0.9878692414010629,0.8835865914463668,0.9270613726939941,0.9781814133865578,0.9811900752959674,0.9819203118607096,0.9723125460182096,0.9724727054713272,0.9819562174569003,0.9684467864144854,0.9890799173467292,0.9562494530635764,0.9744052583473696,0.9729732164234016,0.9660951155548486,0.9535741550880465,0.9738722099835324,0.9847857276643918,0.9874387210284101,0.9854860216201426,0.9795465337437305,0.9653140861477592,0.9786050260183959,0.9873369418105855
0.9472237935454536,0.9776083515480494,0.9754843342652019,0.9782357227348364,0.9857683986449888,0.9779164163383363,0.9721047118268529,0.9888811253582762,0.9856925199426849,0.9251496368079043,0.9440920359384029,0.9866327869624832,0.9790720229992056,0.9635762600015021,0.9710541407189937,0.9666712148752544,0.9718749881322217,0.9702009351731801,0.9853851656879108,0.9520266205233106,0.970059656999932,0.9840783328763589,0.9818502306905723,0.9861069864094677,0.9644636482576993,0.9841778234635612,0.9848470263475417,0.9790141744160797,0.9799865734304322,0.9807176433216196,0.9762104780471716,0.986593509620484
0.7471261770663777,0.962720657163275,0.9852185618342141,0.9799703227495101,0.9801361360183594,0.9785222475496029,0.9762859623484702,0.9853529506995403,0.9853484175849075,0.9667440239608601,0.9735790542545832,0.9832696333645442,0.9856972682974179,0.9844124478031834,0.9829173741952126,0.9833103499169129,0.9824376223386985,0.983809894093952,0.9229938985249847,0.9786928081545742,0.9739915701424472,0.9824379066031188,0.9833616584055486,0.9539065448393963,0.9698315188273577,0.9809599645211555,0.9212459819298343,0.9744647186701233,0.9396584366662615,0.9299739186712233,0.9247799040626584,0.9846113483731316
0.9741670383126654,0.989985631631728,0.9933487809698849,0.9910351736599708,0.9735631986583154,0.987428205709453,0.9903187601906868,0.9908845690315277,0.972211612882075,0.9495897227888213,0.9577718978637301,0.9775272217274591,0.9825877397012202,0.9780711018322746,0.9797716307417531,0.9787616589902766,0.9740196368707458,0.9747898913658554,0.9863243936254542,0.9454318381745549,0.9801393958374155,0.9844262846394677,0.9822662798345783,0.9649169910864273,0.9694491484712568,0.9807419158722972,0.9721330601518731,0.9774450150125878,0.9788575311489881,0.9605771571698978,0.9720768808575856,0.97260925582866
0.9057518271062528,0.9827119369488929,0.9895804692407556,0.9734652203411726,0.9838871633696957,0.9761561108626567,0.9756447401889433,0.9708068577953524,0.9848264539653937,0.9284377791113532,0.9585620470150398,0.9819057978150717,0.9835007363558963,0.98761293094836,0.9589218685245438,0.9580529368031934,0.9560495941815442,0.9568265138227373,0.9665993952276933,0.9641895493780274,0.97773473522213,0.9814426685024233,0.9846905372710167,0.9736996303139459,0.9589920145060582,0.9790561912344745,0.9610197025219134,0.9785403291569762,0.9782134449683951,0.9711214750040221,0.9728110585266343,0.9799253250801679
0.797113069945111,0.9545597838311893,0.953055571549633,0.94022018866011,0.9405816585715353,0.951681117359567,0.9215945129372617,0.9808861568679569,0.9690662604199141,0.8748855551739558,0.9571028817033622,0.9592939345942679,0.9753554827783615,0.9618731766576876,0.973365692973647,0.9601900184388995,0.9730780126098484,0.9745223821017589,0.9602489082841918,0.9690056734550995,0.9522717164237277,0.9578270260590422,0.9830366602296119,0.9461492753948709,0.9169304023180529,0.970510422810031,0.9637949334821072,0.9795263474971452,0.9568671036128805,0.9636908577880856,0.9725400025440977,0.9710352596400464
0.9654329469850667,0.9783027257196647,0.9701958265197049,0.9818211726875269,0.96643064095288,0.9734381672531885,0.9723158961364644,0.9562629709383503,0.9589474331280761,0.957042867255367,0.961585551411418,0.9853438172338397,0.9796953654906239,0.9838441319887288,0.9754022157552621,0.9760142665555278,0.974089769106534,0.9740362311704013,0.9792756998481543,0.9108239241052105,0.9632063784219904,0.9801858258007603,0.9779228637609815,0.9818000865353467,0.9803246725001128,0.978536314296201,0.9828534072691484,0.9713684719478511,0.984859250924344,0.9798808316234738,0.9729847150283367,0.9379975917480862
0.9771733681884511,0.9872297185683431,0.9338005174290436,0.9661913301138423,0.9726168857969273,0.9649287126851117,0.9346150982767292,0.9319361424248429,0.9803697215116359,0.9134995038380433,0.8696175416633326,0.9760331530093304,0.9791513351528307,0.990281074283479,0.9695275215327248,0.9791106349996318,0.9773244933659634,0.9765645908073822,0.974934892368699,0.8298934674130842,0.9499725589466188,0.9789493153669061,0.9687383112634307,0.9232029219305907,0.9666830011703124,0.9744611924882072,0.9767662422922185,0.9762418120386256,0.9781669014994032,0.9753608771279406,0.9825463144317521,0.9732767279076843
0.9336601638966634,0.9722910338735845,0.9578544220090374,0.949257207921851,0.9853850690308351,0.9550530291449689,0.8667536945783514,0.9772321360934274,0.982179244655914,0.842361270929599,0.9212802527713354,0.985414480987817,0.9754755576287144,0.9814363818411371,0.9866230046092933,0.9858202422878404,0.9876740755480602,0.9877728656209033,0.9729748620580874,0.9298447300311111,0.9824885575491206,0.974013182013642,0.9790901057586681,0.9807401172330813,0.9625185175409103,0.973484122495318,0.9428273513626556,0.975220625657054,0.9772899054297115,0.9782275483206864,0.9760156576477813,0.9838555896988934
0.9763394570351863,0.976209372744468,0.9770336430019572,0.9730539307104592,0.984809949534911,0.9513553922923097,0.9657822346324721,0.991181056993791,0.9850584833112429,0.9609320198284471,0.9586603765222909,0.9628139768257085,0.9478966182002825,0.9766602409564045,0.985314803783698,0.9846428605995943,0.9853012300090717,0.9848482834822991,0.9331255380182276,0.8904790608878402,0.9434598244626363,0.9831402398737396,0.9853133661332064,0.9633467584744057,0.954484701884098,0.9874576894655014,0.9779761202256553,0.9833530761959156,0.9701941948819107,0.9749214494119035,0.9849165613426891,0.9864833635021747
0.9393220348238602,0.9783060132557377,0.9556645442343746,0.9489987807309878,0.9727471603189835,0.9590339791067547,0.9283003691818184,0.9576905240885548,0.9819747211266575,0.9752448418892127,0.9750950958030888,0.990645872547889,0.9686889358988605,0.9805208586397569,0.971882428107616,0.9713684258623951,0.9696286336067229,0.9700156234177146,0.9819934921821781,0.967105185235857,0.9638937579874378,0.9732061573978842,0.9813410227880915,0.9390351552424769,0.9622871434460311,0.9873821690978106,0.9688828392933623,0.9828204453936887,0.974236238653006,0.979579961429425,0.9626180457321546,0.9738740501747516
0.9647104518242392,0.9659645234071033,0.9723580515820217,0.9593994933177094,0.9772069126243179,0.9633561902080575,0.9370219477358026,0.9666510289771675,0.9813674718385386,0.9176767116318356,0.8795890630232219,0.9739571106447855,0.9546982616115985,0.9796694870041412,0.9840438069964474,0.9772047157032848,0.9762416086529413,0.9751256880996297,0.965243317707788,0.9775847342826174,0.9714441752842017,0.9678653745852328,0.9760636592187886,0.9427266149116034,0.9685305245952007,0.9599740771193097,0.9736633316840031,0.9722396766979876,0.9825452701655261,0.9705400586966585,0.9765771838458476,0.9758212130348064
0.9796375889216139,0.9825984588321336,0.9682691954418386,0.9735757635125702,0.9714923146692794,0.9745939440671136,0.9420840160964177,0.9731985547706216,0.9715466783061746,0.748176433336263,0.8006656677381261,0.9838528848847999,0.9890771510827088,0.9914316700355276,0.9870700194978761,0.9855707438841034,0.9871026724419503,0.9878856165573097,0.9774141987472768,0.842503523092808,0.9763373619484885,0.9680677815420043,0.978498421202071,0.9727038996680792,0.977075351733369,0.982169294960607,0.9833085012948363,0.9892098497084284,0.9476802824921944,0.9794600217570855,0.9419138036100915,0.9695570092355079
0.9819308854471233,0.9825664311660537,0.9918196371838703,0.9884900649821463,0.9854885551100652,0.9892209808362455,0.9741151802076422,0.964010712725613,0.9827359800774361,0.9655175560033238,0.9725234020677567,0.9702803607977061,0.9786139612627638,0.9761661547426863,0.9810940310835752,0.9805947832954386,0.9801738905690809,0.9802522891336809,0.9855963503084443,0.9543112936442992,0.9770317752427142,0.98780791117658,0.9479189007591035,0.9197872648095066,0.9499384812529007,0.9864434514240865,0.9460840546724385,0.9921121997155431,0.9877730785998794,0.9896852372809195,0.9784562063025116,0.9834603070324899
0.9471708891281584,0.9794533291328269,0.9888368902561925,0.9831377136697743,0.9865984056622203,0.9860409512431945,0.9650289388420051,0.9566225410282302,0.985930821785812,0.9182345572953315,0.932963888436633,0.9628042245340226,0.9694829904192753,0.9833693918204596,0.9735701570401897,0.9701382641405099,0.9682545048036386,0.9691934543264799,0.9785395573298434,0.9267331239710825,0.9846774280619741,0.9847287922021442,0.9866229634226978,0.9818623102339319,0.9917947849416672,0.9631448162692352,0.9824242082958847,0.9824857402666193,0.9811087042681423,0.9573389436360052,0.9644370641517265,0.9869897102009219
0.9739524427882831,0.9848066233238126,0.9786694177245318,0.9692658899843667,0.9797870230550769,0.9722015640608053,0.952031844201065,0.9747894345641187,0.9870222111787742,0.9633687970761045,0.9724666144397786,0.985043105318688,0.9859029018817139,0.9831147002804254,0.9889418883399897,0.9891983905183926,0.9883921201539201,0.98707748632487,0.9807298571762508,0.9496061179127169,0.9807960889824997,0.9860405899496085,0.968165647839203,0.9848603251992335,0.9682450876309917,0.9757238017419454,0.9826086561158464,0.9746254185492119,0.9889068393532222,0.9796747349576193,0.9858444772336288,0.9825428987921463
0.9561965986854601,0.9835854746907967,0.9833513019068124,0.979839658600439,0.9807414264125783,0.9808061431152383,0.8903812370103065,0.981558035632857,0.9870351668850406,0.9570689441352347,0.9831144005500022,0.9685245349490196,0.9444060250422033,0.9686195301800217,0.9759711773821113,0.9762129413465745,0.9753794246569605,0.9745348212513203,0.9862852641666254,0.9119766335467564,0.9733786566338609,0.9679886200166875,0.9843493891334643,0.9667880482859814,0.9695666870058448,0.9794927299877236,0.9813164049486035,0.9694505280361599,0.9810941243575996,0.9942315310916876,0.9819591247781214,0.9800317122896635
0.9589291130408542,0.9833425388726629,0.9715826978984914,0.9788201502600623,0.986974932187907,0.9774215966626765,0.8066864214766448,0.9907949779358303,0.9887000677123425,0.9774416578165455,0.9692795906015544,0.9833205131818058,0.9920210884981845,0.9806028268469736,0.9771412995450991,0.9770412898047499,0.9781428822282271,0.9780386045665747,0.9839053462445457,0.9757194084927392,0.978474018792547,0.9775643389153417,0.9751361498522333,0.9796692834073456,0.9757994894390626,0.9879841407647216,0.9855479576199144,0.987230083135899,0.9855725968696785,0.9597109311665644,0.9824337946011839,0.9871963209625879
0.9834192895676467,0.9888159827675297,0.9652409301988715,0.9218016033016677,0.9869313860485192,0.9494186941368932,0.8037008173152688,0.9806021635911758,0.9878678808173385,0.8628058350332396,0.9363514305900568,0.9915171364429599,0.9935646676431232,0.9724622093916148,0.9779710581988251,0.9786341731086453,0.9773061318549788,0.9773807999492613,0.9837153122067261,0.9596527657224011,0.9786585822606414,0.9797443398282648,0.9692887618867339,0.9395160821931915,0.9758579718478676,0.9881253624562985,0.9796901624890395,0.9790730443798682,0.9665111681656398,0.9751501351259391,0.9697852354913964,0.9891407698532791
0.90281222074541,0.9857175996061938,0.9710289694012082,0.9780469565616664,0.988223305772299,0.9605540389593785,0.9588486444330508,0.9788898580201804,0.9904640721166282,0.9426377286924478,0.9657931678181731,0.9876724285021826,0.9927658919967569,0.9872315277697569,0.979488025627443,0.9772251894626852,0.9793082193629349,0.976213715276936,0.963354477495308,0.9677574075531272,0.980842384632836,0.9775664200982332,0.9784519479561155,0.9773884578474146,0.9841234093999864,0.9582106104783513,0.9722839496953553,0.9812673152783351,0.9853496792469066,0.9839169578324501,0.9742593769059701,0.9917912961735402
0.9544519612365804,0.8955111659951378,0.9805786396401123,0.8918894970902604,0.9774918000865288,0.9063745537601751,0.9374164169995215,0.9706094831212152,0.9792443282845331,0.9221682987469497,0.9674681190939368,0.9783370726820321,0.9782335356109786,0.9731778128993259,0.983578001399647,0.9831251071220415,0.9838376031635514,0.9820418775262658,0.9864717186918209,0.9473255537090008,0.9819856169844455,0.9872008669351243,0.982109040508531,0.9884196469547436,0.9709801597476329,0.9871335504846874,0.9667602274989846,0.9688225862767048,0.9811418137314015,0.9742613774666109,0.9861773612954533,0.9829311193320116
0.9708969770604085,0.9308688695631817,0.9725070782219818,0.9665075342265492,0.9694643928673233,0.9672567052560103,0.9806163016533515,0.9623310556358482,0.9762203752711465,0.8863505601019565,0.9550502691645997,0.9731834798311403,0.9819033480555399,0.9708833327092269,0.972927667336109,0.9674549791306732,0.9668288525553717,0.9755982757555017,0.9846603246318683,0.9838909951331806,0.9684833070401664,0.9746370811152508,0.9708248882497927,0.9869381899541242,0.9809095442918416,0.98055191977913,0.9853797403140396,0.9500049679190736,0.9790744307354895,0.9818563785336091,0.9841173634664546,0.9709404782354453
