Fp1,AF3,F7,F3,FC1,FC5,T7,C3,CP1,CP5,P7,P3,Pz,PO3,O1,Oz,O2,PO4,P4,P8,CP6,CP2,C4,T8,FC6,FC2,F4,F8,AF4,Fp2,Fz,Cz
1.9832150877504362,2.2553565277770278,1.715612868353296,1.8696021300367285,2.1177125198267617,2.0679954569649976,2.1497413123912072,2.0068778664768523,1.8751731600835257,2.3364491329614214,2.1621857206081168,2.1626265766405166,2.3118078582428536,2.2108317645518967,1.8015567286892993,2.016909994279546,2.0836383986919143,2.3154818969704265,2.0659900174288715,2.211969090342823,2.178357224064794,2.1300555577147815,2.1675302709011395,1.7962089841252846,1.7892277765702809,1.7708842590418863,2.012759055552346,1.7865882784655762,2.122660014325732,2.2236184803015533,1.8279971095670848,2.303992424718146
2.2935106506835,2.3428292261238233,1.1950376875907354,1.7099284606053022,1.8465609267408944,1.7258106994219737,1.7748678033918648,2.1521115186621818,2.2664981776800737,2.172569199414225,2.003905534767628,2.0051957601061923,2.1501424636717346,2.1205799566941392,1.9986869578510928,2.064334905086653,2.412447959443017,2.0269910802922033,2.1699963139228253,2.137036112524922,1.8965731241524673,1.9855114154689424,1.9053021788482503,1.8831811345687326,1.9605292170751178,2.379262597555349,2.2837382475562262,1.9726976063266008,2.378075287229989,2.34970266241103,2.2530555855448906,2.05125602877558
2.0810721980142413,1.9119942937225096,1.2781583440990885,2.065710163904003,1.9791426641852707,1.4291666541623678,1.7278879014709807,1.7015803617690155,1.932429741942849,1.9612992805929264,1.9548520801807427,2.151448031183541,2.444213958455611,2.478786959170524,2.2699809247525367,2.3215720002725315,2.333563884915042,2.1254621949431436,1.955834971482165,2.070387170991996,1.6979935674504496,1.7434258874150297,2.0090147962120435,2.1090100278424164,2.075139600745197,2.3623432120748458,2.3959562939028336,2.0804449445384643,2.34230474796546,2.324597567817619,2.009035633169665,1.8470204988250274
2.3619105143116372,1.963830919657533,1.9273490667391948,2.02937713835843,2.4051255196926067,2.502528386265069,1.982934403042418,2.231235474064242,2.5162711351990765,2.11498400651259,2.0095443281163683,2.4050851265564046,2.320672016499463,2.0254019686844758,1.9581280365710398,1.774278601768911,2.270927919491078,2.291749944536398,2.333077111355917,2.282238174971707,2.305377020253127,2.207699874760087,2.398105960238711,2.2079436126227607,2.2277612681821037,2.634926006754994,2.2008444507265055,1.8819677474582477,2.308390127277656,2.4313594136353207,2.578383456103516,2.2435142943711677
1.6948314539315372,1.8737231317746468,1.7151022700829839,1.8546904475662176,2.02654984003129,1.691473334664955,2.2089174319938887,2.1283382039278775,1.9785311672719883,2.279036466069159,1.9457440173357141,2.2888904889710417,2.2267617753570077,2.36514817316346,2.2738825185851286,2.180480390738858,1.96749805868157,2.46383302727678,1.857645799319624,2.2911596583227385,1.8530743252024877,1.89253563030665,2.0459929933383063,1.3326045154647992,1.5218602369011944,1.8404617500654323,1.7472682024015194,1.8041583515675552,2.0388160828620165,2.054107336785048,1.902978164128381,2.2604526293236176
2.095443667627113,1.6911006997748488,1.2204927991224643,1.6595497778337538,1.9033493824973875,1.8401106194564831,1.7885985674685343,2.145731226511468,2.3372506871046355,2.3861384869093722,2.1838538643830825,2.3750961453807533,2.245406657506485,2.0807311552784595,2.2017745000967923,2.153299379564356,2.1899552911127893,2.187243449671892,2.32358143162571,2.3073880478164743,1.6754296487118572,2.6000139987493003,2.2378902096794304,1.8077787523152498,2.1828706858919693,2.4051947715228734,2.4157006139663797,1.8562308560794847,2.3679967038369574,2.324589004748069,2.1890638411786187,2.274526045502379
1.8753313660690352,2.2990629119607355,1.7052598469313989,2.1531960897683575,2.3891576306938545,2.1737735614650453,1.652379547035265,1.9862036973747188,2.0679000701595123,2.349022348448746,1.9029308953520072,2.1919740513760853,2.1267870975572873,1.943160944924557,1.977683593252014,2.03844084989,2.0981096623869258,2.1845112584230786,2.226772690085066,1.696811447258657,1.7718220143112164,2.073533029323771,1.9255298027559324,1.9001293020393657,1.711782225687973,2.300393293138002,2.0891420244601,2.022338100925792,2.130889085468436,2.1294112688373383,2.458396329867902,2.2745673741761925
2.2600260234309557,2.5015094595640237,1.487274011460986,2.5235176447632286,2.8756191487526053,2.251171401456891,1.968129637333558,2.41003420563984,2.115014002195565,2.8264212782262166,2.0798969771293607,2.482665492400342,2.3621416872755447,2.5055347392703453,2.543449059478709,2.4087909064473263,2.9289747922612834,2.622262023074407,2.4024263075944567,2.404035182523301,2.3837896761570336,2.8913636333316055,2.3462966497094095,2.3160476080790113,1.9426164959269374,2.3326566455681887,2.3584120478260506,1.8126774169375703,2.9801616543926657,2.987952500667536,2.7289555914642123,2.8087549459707084
2.13447889535933,1.8642725276565808,1.9851896281815542,1.921211804325019,2.0920787755948984,2.4601941851958404,2.1569343089052455,2.45583311419672,2.1419439563885243,2.4987498521855533,2.067525598973723,2.279926973739532,2.5717897074307032,2.48315844580495,2.538152740222595,2.3026603421429983,2.207631633200103,2.364853957210014,2.707385784166687,2.0652778466337702,2.1425321284166086,2.562667461433768,2.3785019221075046,2.09147969064017,1.9406844895860598,2.7293085288424495,2.3042658700553558,1.6444162217140805,2.680758816704865,2.6020149225762963,2.565000937966727,2.4693840578943265
2.393407787621096,2.301011436485688,2.1407906800515484,2.130309185489564,2.4502137840759257,2.3942383846925903,1.75761237427947,2.6412031853977904,2.48315774598385,2.2787012010091585,1.7932304118399984,2.0195186816508266,2.2618571773524714,2.474276421890435,2.4095795312192054,2.5268329163933876,2.541178811803694,2.6295574498857333,2.368212144783957,1.9354879419437339,1.9684626927261768,2.237654807662204,2.12452818420534,2.108336664309085,2.0393146003254463,2.757702895127359,2.2078737397501595,2.1260862917437513,2.6684577202633557,2.6066139911501636,2.6794226613981236,2.5389752982705884
1.8357551807057138,2.1969806628431408,1.3101449906948288,1.9307839695801996,2.129531743220947,1.8688482297521514,1.7753475852122653,2.2974125730879953,2.033790831416729,2.389824144690796,1.847594255384901,2.5413984752350616,2.411804818047388,2.1926874392819866,2.0694883992087316,2.004642538705321,2.279442285124744,2.119456737497479,2.1925470543029175,2.0495968885759654,2.3966700253026083,2.6563341407731147,2.3129088414185777,2.2172122898869895,2.4792842130440786,2.584608632880354,2.535076797052734,1.8490188556332707,2.8413271226629018,2.909997272605007,2.4574242832323656,2.808032192998374
2.309017013505834,2.3034607422815254,1.9533569101347614,1.9575136006390925,2.256705216771855,1.8592724214258978,1.8645319404950174,2.2195284065078154,2.136572686550202,2.5036651160474004,2.3526234266991373,2.7927220581423846,2.423073460269682,2.420316222288547,2.1610458515732742,2.3586593466980412,2.2824797104391696,2.0970554141959448,2.7555997697424965,2.2026855386030575,2.217361804425028,1.9945403802930244,2.1443677095806235,2.1781035623829776,2.3733829688589996,2.6292995577334963,2.3987175470004516,2.1521731100350747,2.800790319779033,2.7391572573662097,2.803497348752052,2.5519296312706654
2.2865042887960234,2.4366102466065387,1.7762799556115876,1.7531711834045889,2.0383359152235396,2.0095154356933977,1.6095177580199842,2.2792012194559916,2.303643582276202,2.492794197321291,1.7525447388625974,2.4309103990872654,2.2956867528938942,2.484543027377274,2.416802141009816,2.3366092875573043,2.2585901092205423,2.4803695266243078,2.1438630428823173,1.7904143107854695,2.065805711925068,2.275021408154301,1.8342595635602177,2.145061532626519,1.5282149687314428,2.582278099899182,2.5546822460688303,1.7116587243651342,2.7383750804465383,2.6589599268708155,2.370931768113516,2.791029567634916
1.8269871395611528,1.826528164858465,1.7109481794801702,1.4665286722300859,2.087253847869211,2.3192461774796453,1.9681587991544138,2.5763594949587754,1.9370283432923636,2.6218704846236798,1.642859451813021,2.177331757912216,1.9779415488209247,2.1522117178512787,1.6246942514440716,1.7656217429635344,2.043779269650134,1.6294437542960394,1.9725729884789907,2.0147584475190135,2.809501275747355,2.0987946058736138,1.7988105204180962,2.0128182068666707,2.0794890242042143,2.6157304743706877,2.428546082365296,1.827627345165856,2.388468409271869,2.2442405111796364,2.2327671878469255,2.2588244528992094
2.0435343975129894,1.940633384882398,1.8943070871693992,1.7157350227232175,2.0088321783250453,2.297295964513137,1.9955380737457118,2.4490843627381227,2.4065716820115584,2.6949625746208508,1.9463057620536353,2.9949180140912905,2.682587416280863,2.2975451519736705,2.0628526896411965,1.8699016035298106,2.1283821429323018,2.2338409182514507,2.2681433486306735,1.4915769513978312,2.199705363191933,2.33675198776489,2.7394315173945647,1.9934545111549828,2.384348402061299,2.0863948138946222,1.9480784422989474,2.075320796561836,2.4003517294118595,2.4912956254876963,2.0241610256101006,2.1598539772099707
2.151381573141852,2.2147093410708414,1.5380192899706382,1.9724907348511242,2.1349553375386603,1.9560917205657093,2.1444104878604078,2.0554318699006986,1.9176978917754615,3.144377447732582,2.2831986129456276,2.3253245320735383,1.8723423782342037,2.530245277363451,1.8983986081018394,1.9246140204394004,1.9743833644679358,2.332592711390105,1.8185701796785325,2.1691680671917197,1.986996612847125,2.0020206389559,2.1034097519467143,2.105350111644298,2.2762551587443993,2.211158241426093,2.1595138000234844,1.9654609142109862,1.8963322156189968,1.9168854430389195,2.1476435209056692,1.961762353913749
2.1226011997573093,2.159417071604638,1.5287309470173842,2.1903180401314506,2.163584288967156,2.4797112484098602,1.8178083344188338,2.8461549602283847,2.3674836114065827,2.63134160628964,2.107929311097224,2.5061836106518998,2.2270909205274334,2.2128063720225586,2.041830838665903,2.1117359460748135,1.9944041412655495,2.313577713778092,2.335374288820721,1.8736644955175827,2.9546278325960915,2.202974876276795,2.0913309663406356,2.006589889397422,2.1181479319917114,2.6522675069964663,2.639933379251954,2.431690776782893,2.6836125307712932,2.5381077773852034,2.560289355216296,2.244323026477453
2.326896364346135,2.469659716119865,1.6297473727335106,2.1748925769424945,2.1412592867274047,2.2404130925288697,2.1835097288036778,2.6103134573717233,2.111707264963925,2.5877601243984816,1.9284105535548015,2.3100843260808976,2.043167049637646,1.9447659023620016,2.2699846935869354,2.1786703509876943,2.6361039113253963,2.3155015622580777,2.629908034982412,2.1434537222121333,2.411530650603086,2.3627669690290354,2.1658286566238574,2.349574683313427,2.3663618086166838,2.4685652763209465,2.157346510626036,2.1404951118378945,2.2298132769162415,2.1479143606430213,2.2037735556198768,2.7352496386692344
1.9619597732607468,1.9477177643509003,1.7848471573946227,1.7936299264060858,2.158510155077712,1.8484428792068206,1.5664516357616374,1.9856803431810592,2.3835458324082865,2.12442807987112,2.2304605478729984,2.2739598271763977,1.9921293745457755,2.165365846156346,2.160122892033415,2.1800545934507767,2.0907072239673163,2.6332465478996925,2.5023083152040515,2.0195022772477644,2.041890851095038,2.0778426328044843,1.9798653803652206,2.1338460958639223,2.069181539950891,2.1578498698930217,1.8878402103994747,2.1264423522517477,1.9431678625477775,1.9484661199191509,2.3163556308055107,2.5042959832411835
1.5320936402207033,1.5227177218929202,1.1026449580600146,1.5144194861854405,1.9871719733535367,1.7432260787061247,1.6409442434843728,2.5891900354990893,1.870585921827973,2.1690045271229383,1.6226800113398514,1.6436956731632355,1.507544290344049,1.6368388025581744,1.6145816681540333,1.9342102880617278,2.506823762443391,2.3227972211363648,1.6182699925681838,1.6204058601621858,2.6864220105107988,1.9013903241178916,1.9681094765615597,2.0153421620245453,1.8393621733212644,2.7324719531842163,2.0362963856965814,1.4418294596816719,1.8273358442480454,1.7944342986097808,1.6276778338816078,2.3491908144857074
2.02036906214977,2.2873659231943466,1.2057493251958438,2.0132324450436885,2.0465663056565284,2.2807462137353895,1.6757616619216051,2.380055476748347,1.9759536315744575,2.4110369489958536,1.9324712782349927,2.251175479646976,2.025350013792106,2.380423433567425,2.200260782899657,2.035544771420852,2.0469813577598632,2.146815750106265,2.0947487580166575,2.024662101845325,3.1758688074265202,1.910202040786911,2.332910336243275,2.336990422222139,1.9777075496989371,2.576978738382089,2.3253281746614727,2.02450596341446,2.361570042419333,2.3226291290465997,2.2977831435812384,2.3335442009704246
