Fp1,AF3,F7,F3,FC1,FC5,T7,C3,CP1,CP5,P7,P3,Pz,PO3,O1,Oz,O2,PO4,P4,P8,CP6,CP2,C4,T8,FC6,FC2,F4,F8,AF4,Fp2,Fz,Cz
1.9067951530265705,1.9858466374344914,1.6075483234091454,1.8255204313137077,2.0558007228656296,1.8911764690312958,1.962225903305272,1.9031501041656873,2.2793088407001867,1.8226349057485423,1.7513622521122116,2.2041528080669783,2.1898652117177866,1.6751091907465576,1.7657652876145415,1.634109645938024,1.9353695895637537,1.9204110874542972,2.609226647280037,2.003448472331096,2.2249867952326343,2.2530464654903497,2.0964838023900567,1.9780498032491987,1.9905860935766508,2.0039906946005295,2.235118551884462,2.0670623233798544,2.2234693085521338,2.213092822232676,2.4350201910355063,1.94408807683847
2.282509935902054,1.9443633431580327,1.5587565182474512,1.3886674734990547,1.9392141835123842,1.86391660276705,1.874346944626129,1.4900620049288784,2.1549472389562165,2.275811090168623,2.1128405885292896,2.2082686331383585,2.172738271760952,2.260930470032134,1.9833385465300013,2.1553256030951733,2.6191742252712245,2.629218826788947,2.49821604960736,2.0411159193336266,2.2246955204111405,2.2727384918178126,2.199897010277193,2.2372658289563714,2.319256023309886,2.36367652149972,2.257530403268199,2.666627112345157,2.1990590948056306,2.0935096541161133,1.9817953913280295,2.2697325266188213
1.5717532813866528,1.8431104898808353,1.391890811748154,1.5395783266684728,1.9226248788533629,1.885751125917881,1.7062578069541807,1.827389526703374,2.0955561177456574,2.2384193123682983,1.9704358264217523,2.223684188650027,2.150438159108367,2.1831578547695765,2.1302533940256683,2.1147598677307524,2.014961328812454,2.0597114519306725,1.7669109461686214,1.9378259601012249,2.466270611504033,1.9734471298236902,2.129958047933069,1.9352375990083737,1.9656330913214872,2.0846976633055,1.9049271378162123,1.875686106881161,1.9288436465866199,1.9505470731740688,1.7772402773314127,2.245771880320353
2.050554980910524,2.1678172140068823,1.3642659059250584,1.6965630664018774,2.01877141234856,1.8655922316947873,1.8046328676255097,2.557616215507269,2.2594339825861525,2.38903698857332,2.278344375328549,2.1491188617500017,2.007143355009492,2.343575036412296,1.9788090631459785,1.9832867177106712,2.2051487531760032,2.203593236655929,2.014950825820031,2.0570811644329487,1.8612579720178062,1.953723251140397,1.9885502112973967,1.577483473738038,1.724343295397712,2.3918147584317695,2.1333428806131804,1.7239822311252269,2.161956534458847,2.1118677867009947,1.8776768135449247,2.281920745738992
1.6332175997801996,1.7728966271178068,1.8595928588141062,1.3677985342142625,1.5785859433372535,1.9235769255569697,2.017887724529974,1.6106697309271847,1.9136749108938031,2.260908233277731,2.196404485021276,2.441735175633851,2.2528291247224783,2.523481013360992,1.9238845652407452,1.9394652370083494,2.2828162842063664,2.272897061503218,2.434127174228788,1.963861198144113,2.253661474931661,2.3149267229384347,2.0818772376444366,1.5390075391345555,1.4068799043637255,1.9875959237538252,1.9385320483636186,1.3512906272936758,2.0955770895633954,2.1327055327687994,1.8012851054066519,1.9924361272334756
2.2839231334913914,2.216347916434723,1.9065768032766723,1.650881038008608,2.36118043470359,2.1044332968163286,1.8756790430860861,2.2208675562538085,2.242622084448059,1.899112657873824,2.2684559810396396,2.154278915161225,2.418355121829102,2.017691823534671,1.9884472146664467,1.8775135370906393,2.1375504735503945,2.13465081626098,2.3623159876953532,2.036992180573752,1.8105403588118774,2.101796355689372,2.1849317658041802,2.2171754975882436,2.3953887210900535,2.1807583178671535,2.18773448972217,2.3265932848847104,2.74766206054639,2.4927406371706784,2.4930280976666146,2.4375307002718283
1.9386548104770946,2.566148115918381,1.9829946693155382,2.0600005043389986,2.45796029983827,2.3711254435088267,2.1736603676208146,2.1021821507187517,2.2850038420948753,2.1336647016580326,2.114810378705348,2.313055764163365,2.343878079533684,2.43367946525237,1.9993806452907814,1.9497497469164626,2.0421600638130286,2.0939142645491486,2.0168422041907244,2.4638529807869847,2.3741584947714474,2.3775453973769265,2.0743188075313537,2.334662280287417,2.029128016614896,2.6795946219824316,2.3493212029288078,2.1930078693527704,2.5052524502798654,2.3623013937728694,2.4150449722928813,2.19419847107531
2.014088051708605,2.093114177040741,2.066186082264018,1.7458907350802582,2.4972463516712895,2.3178576209015636,2.024839214678044,2.2703324591246434,2.3015085419649037,2.4561026872530216,2.0797662654911493,2.473868189521744,2.5428239810676687,2.068465604616396,2.115394376266006,2.1165126755909913,2.207466903643307,2.21855808010576,1.9844764674322977,2.428102837915007,2.015656899586485,2.190966023403618,2.082193367609344,2.274779078056449,2.479522744123107,2.2575319972524177,2.016035667596524,2.1671737117910888,2.7504509453095016,2.6839396643636353,2.431861815081435,2.5452098737583335
2.2413245639316557,2.6978864889640564,1.9606123379568043,2.294323969981919,2.2748309806701554,2.2411917119389244,2.038328718812,2.121609012567415,2.2127219273326846,2.4878781150608664,2.563398317849512,2.450862791888362,2.318760895414238,2.406138391109951,1.8478953678985368,1.8420772201492512,2.357730037193132,2.346155128057862,2.1243885756786685,2.1242393559648,2.3728995071692345,2.1328013441586435,2.3415624844975764,2.7505093160268217,2.3535006581446614,2.460994046041459,2.2236542824161525,2.4547938292458795,2.5680921162273154,2.8111864034297405,2.427626312776573,2.1101318966872507
2.0090948843012035,2.1992929993179766,1.9971556468003633,2.4349042441017175,2.618515473880658,2.1925109006811545,2.282871709653639,2.3024168844773705,2.781094336057947,2.098381626114019,2.236923201764148,2.6103258746568683,2.6860124350567265,2.4117275041148774,1.98821740901008,1.9030019454383058,2.2599932326113126,2.2508487338662015,2.221813106411716,2.438111026096425,2.091864623665571,2.3605681904484452,2.2762637731864475,2.784602355567867,2.554609381002037,2.301013740566469,2.3613536647548132,2.6141954961324307,2.6938255214442415,2.7074869141702456,2.1816493700964266,2.357602900169535
2.20064389979519,2.2276827063173257,2.1708619738668027,2.042149845773029,2.1385706042123647,2.727975988531926,2.2172612164126777,1.6976014064149887,2.0437486345233675,2.0870269603776532,2.4806122888387065,2.7842429902243313,2.534235766137252,2.564741029673717,2.2714266757293213,2.4170793259923404,2.690741848006852,2.6787774759872276,2.236957483653921,2.1207319720701454,2.2415794232626594,2.154778206141944,2.005204704920395,1.8655217543578937,2.0128051848765574,2.1532691710328193,2.0740311432951257,1.9237445779461446,1.8939359225215116,1.832815447165454,2.215423803926871,2.3240568562945447
1.8077270987045826,1.8262541093370754,2.035109716099663,1.996442665247458,1.992761306894445,2.106384340479766,1.882280405295046,2.0114944251918785,1.845628626346412,2.0029575693293893,2.001552253278234,1.9950204219244034,2.231088459107076,1.7904017263735426,1.8033439906773718,1.8102161750530992,2.0555424585028907,2.0739456290979206,2.371662939176856,2.403730163862804,1.923189291238998,2.026824716047882,2.0376121838070786,1.9032739372482057,2.162091411008194,2.180412459568968,1.714216273860626,2.0334122852635055,2.2665031417242743,2.375586645906485,1.7769996528231016,2.157717669381039
3.0359145620857735,2.4666250720875462,2.286378002595625,2.331901013896067,2.3924466826939934,2.647583985627448,2.3543802200900203,2.184697470582611,2.376314437613335,2.3849234283864496,2.495873640121978,2.302257308429099,2.4698178974932405,2.50610025699343,3.0920799939129933,3.0856790737299913,2.6432160630030683,2.643098106152788,2.327739322556605,2.40200752429104,2.6332183530727336,2.5279916627670866,2.217326561580821,2.64316346592445,2.962904051180021,2.4727415894459135,2.145524060305,2.548321945197684,2.7653641463661787,3.1311856860267393,2.5692701583457564,2.244105862088153
1.9899730521785222,2.219757223990499,2.3917811057681173,2.222757050156955,2.78787240594996,2.7986219869247626,2.6212000014871326,2.630422020860392,2.7000208507540924,2.609229913381036,2.285364129621128,2.505486167285732,3.0945606023662973,2.1510075712497407,2.5323176519072956,2.572208173340997,2.8069436342955703,2.8081365467097488,3.077326271208255,2.6988689615198522,2.406088333237726,2.241826448489511,2.7598282807307486,3.1335538589277117,2.9628301067828553,2.525726135426216,2.0800789599685445,2.9695653793190737,3.2693293425061523,3.560839687029039,2.180738253535907,2.0467310368257583
2.8001502214206364,2.501254912441903,2.1947494246679486,2.3502301992501726,2.486660674727254,2.377206735647127,2.0251179674075552,2.241513385998826,2.3475796637901847,2.09159719237926,2.0048366503023747,2.4709398106629634,2.385970372861543,2.4049624757993313,2.4474284548479512,2.406088078043759,2.2769685999214473,2.2588744580201707,2.1531532622242113,2.217012738615076,2.3993161550719075,2.400098357828284,2.5712584851917404,2.567384785144011,2.5794816143075407,2.825273470514931,2.4261191872347574,2.705859889177961,2.5227111661927717,2.6151428928544522,2.4615200085914504,2.1530392024793494
2.175351288999589,2.2785327104490123,2.197178445438621,1.689243364267628,2.042257699274484,1.8690979709079343,1.8762819690623154,1.964632091250907,2.3733609802657254,2.5729619549225475,1.9904709715696527,2.4410927026353275,2.471004664464923,2.3274859829550616,2.2181455117234568,2.2087575440433462,2.1897408466033177,2.1888295876459627,2.3697613417142236,1.9052853719657334,2.1217613082649183,2.4310399587731433,2.0033229850505445,1.918975457911624,1.922810838655,2.2529185563378813,2.091875360513054,1.9028800934242645,2.638160777048353,2.623457224281506,2.5228263923917376,2.183083131690825
1.65355379754736,2.3751596885507236,2.17959047518576,1.290412902221905,2.2900406739208714,2.530857233542857,2.1577194852784154,2.0174746871628995,2.054889921302728,2.1897283567871195,2.141471589707593,1.6361262596465451,2.0839835552117076,1.837241345544628,2.5064444131099077,2.49633011433503,2.367122826069751,2.3691521600724044,2.162340706947951,2.130654486038871,2.0040734736504024,2.0021819559836205,1.7848028119046386,2.149177315630651,2.1843516435144053,2.2371238108534377,2.1097993644906463,2.1653481360702624,2.4037770610534577,2.765079756034482,2.336354236560706,2.400124199541504
2.5555398734104835,2.321112649831493,1.7801885087444613,1.7368556976217153,1.773806989002063,2.2513522846484126,1.8394773054465312,2.124599515921326,1.9529554512164393,2.3833547834949362,2.2482829976568226,2.3440407973754422,2.2390342051439114,2.106239233770351,1.9976861585124042,2.009079536292685,2.144512838007104,2.087429324854919,2.0666056024021433,2.2546624602676393,2.2959403007620747,2.2534604990394578,2.6728510161900427,2.4514983620466153,2.1904536362079012,2.0009538324982654,2.4384309953448526,2.355969807854284,2.541795821965677,2.4892658030246992,1.869506534572886,1.8065876952210147
2.23420798889172,2.1883658089828306,2.254899661493908,2.2438382596276814,2.074401107025081,1.952766744496444,2.0723545624929534,2.2858314044320163,2.0730981544470186,2.3538938458922223,2.206006860109308,2.222059612336191,2.011096556869747,2.318127257938283,2.1688010869520777,2.1794903114997375,2.3469897146196907,2.361520209390448,1.8603156862990593,2.2527867028780117,2.48230640675841,2.0143526269577854,2.3147241409988393,2.373779741936473,1.922429007873962,2.3690680125342505,2.3400979592117728,2.0864464769380584,2.644828136739332,2.353298504716942,2.1601839011940243,2.325478007838304
2.341007886105572,2.0854795413486915,1.7392130419801617,1.8621044153047177,2.2068411066261078,2.0008806783176887,2.068888596293226,1.8034400264781725,2.29263291014916,2.1846643180348178,2.0999657245642416,2.0061412534484373,2.103353417147291,1.8784276606078136,2.0247566425103756,2.037574463790764,1.9267373208570036,1.928620542828163,2.131824428087768,2.0760100353310174,2.208991680469247,2.1316366782513416,1.5748075464248792,2.4517018979247247,2.11463153954731,2.316745745904148,2.415603090733817,2.3947746435857127,2.54059993629031,2.411894846315965,2.059177180100105,2.1853636122344167
2.2644965619160087,2.3452463512563217,2.0701966681462514,2.2631292602832147,2.4353926303654205,2.634869918531529,2.1809789404175945,2.1505792695234756,2.234558207177235,2.200775068598832,2.306192640596215,2.249765050650245,2.1691637200664915,2.1687201502477866,2.122104155649108,2.1106676814813565,2.1695169066478797,2.175076108605334,2.278280458973994,2.443816718515427,2.5248623560795376,2.045398192339115,2.6145413905073718,2.5548251089538776,2.5812359362240365,2.4348385997552975,2.047371769902994,2.381516042346246,2.8152276856842575,3.149873227685766,2.5020278214349414,2.281117584121128
2.712102142053333,2.4260609180244552,1.5611402173524827,1.5924860618627028,1.7921632538766723,1.9817708867148036,2.0847426814591947,2.0704934032313123,2.168878221584161,2.1742999253021917,2.2886224055669016,2.515535723175178,2.9102069355470768,2.1532824140131064,2.1170033484000506,2.1379179252971103,2.7102440941120114,2.723214720200292,2.9655613594108394,2.4090338537806635,2.41680451049034,2.595476073030311,2.154036568968608,2.7110307790210424,2.9212393882934857,2.792879341358087,1.9712542676314495,2.7504460034065894,3.0523893421084307,3.5569860361682792,1.9449621450625647,2.120606054394606
1.9017568723658747,2.0935630549663817,2.003748110666701,1.7850554522154816,1.7892141050677346,1.474898321732195,2.0389979694197207,1.6139764064040274,2.2025028620553884,2.370738568496583,2.207400084117085,2.379283356082816,2.3815705472951225,2.069587064715017,2.041441478271991,2.043341866138488,2.0822292379532152,2.156329931496311,2.1381265253390453,2.0726956399917316,1.9460769016227806,2.210980370154494,1.6506877901078054,1.8745918857821826,1.6409587421315588,1.7370213899506581,2.064811697207825,1.7475800828704133,2.0687689875392143,1.9275447852558831,1.9607604290637908,2.341937478267109
2.1633313469887274,2.04755302508267,1.9616439464622526,1.6839470039015134,1.9679377300814571,2.0040179783768894,2.1215548527373183,1.6843160728616258,1.9331869966394872,2.1958075118655995,2.2474028006673357,1.9397450626119201,2.035042635415525,1.9429803007697977,2.2680577552059233,2.3314052961830423,2.0976457007188114,2.071973840428532,2.259393857036007,2.001378702826053,2.085702863008912,2.323431170466281,2.329136223571087,2.577555434694131,2.388790625977514,2.0911055680621047,1.817521796596535,2.036313023872998,2.4132090484787803,2.522580094273508,2.0873374466522967,2.416092793281915
