Fp1,AF3,F7,F3,FC1,FC5,T7,C3,CP1,CP5,P7,P3,Pz,PO3,O1,Oz,O2,PO4,P4,P8,CP6,CP2,C4,T8,FC6,FC2,F4,F8,AF4,Fp2,Fz,Cz
0.9729621782300568,0.9730820631890637,0.9633753030267439,0.9512504682651451,0.9584869860688784,0.9605517732732304,0.9595505086894478,0.9711857481343943,0.979457986431557,0.9860912030120136,0.9555207025579389,0.9778968360049675,0.9910047426828912,0.9872050202493172,0.9902184197323279,0.9707269824506533,0.9771174291962044,0.98323670236844,0.9837400074847076,0.9770768723778722,0.9813491989770105,0.9782049011029577,0.9858624590108798,0.976630867746056,0.9898045681847505,0.9295651520783448,0.9602071858766009,0.9762019163816714,0.9857582070846538,0.9834915217146021,0.9852478528969637,0.9623602727780559
0.9780415709258936,0.9815121647388537,0.9696376042421768,0.9532451958686012,0.9761329337838806,0.9815042295698897,0.9733644512652052,0.973393148391548,0.9857834817307148,0.9816447716103838,0.980314269320083,0.9878119093234768,0.9910903223883508,0.9856976216914344,0.9864986711706941,0.9812390041091901,0.9745152842955497,0.9853050779440355,0.9880733239508706,0.9688974166445685,0.9521092506344079,0.970519493371283,0.9890944703577662,0.9755324000955522,0.9730506047008197,0.9810880856490347,0.9805760368107092,0.9805569361260278,0.993207039927566,0.9895837812053881,0.9841014437988352,0.9791743082015029
0.9631350126677349,0.9695465375829713,0.9507361806322181,0.8948084890462807,0.9842987490164816,0.976517550912977,0.9866631723208383,0.9799709353804426,0.982094503614275,0.9830589914553269,0.9762353947310616,0.991620870346459,0.9792513450601655,0.9831802041189539,0.9779082518213378,0.9849131819588256,0.9657457141278805,0.9883564357267487,0.9818568787013457,0.9773149800353668,0.94143281710364,0.9654431819934853,0.9804336756569312,0.9732235114371586,0.9809414197406929,0.9319999070260568,0.9733401456337153,0.9795059919630985,0.9790563090789779,0.9856027034997717,0.9690163554736057,0.9863334946317832
0.9710129980904303,0.973356749959175,0.9719794113033283,0.9729282555811851,0.9717927848566886,0.9880963891776945,0.9853426834007226,0.9854301326712751,0.9862948728331559,0.9921333849590637,0.9543973478944068,0.9743805742018059,0.9840734980022754,0.9870344784117968,0.9890853068104346,0.9817607478009456,0.9860058579536961,0.9926790075384149,0.9891161494343684,0.9918262570284524,0.9810996761593148,0.9814400075515656,0.9629054521868796,0.9747372512230535,0.977273405807843,0.9802074308446761,0.9667021085903724,0.9853619754771555,0.9907612932386846,0.9876252424234302,0.9463940695519337,0.9851108419927677
0.9797964416820177,0.979688977609805,0.9827465537752623,0.9727796544740006,0.9877012283791958,0.9768418316467846,0.9487005150856563,0.9778985941607347,0.9854946001429632,0.9891273555223382,0.9653090162178267,0.992280305778543,0.9916663759184088,0.9902476984859587,0.9841222431117935,0.990679987439466,0.9900479253244303,0.9806814641509759,0.9770158545144666,0.9819074416686869,0.9876293711207005,0.9737886982120988,0.9901904780160096,0.9810852166433827,0.9786464266234339,0.9888107897369098,0.9227176716151477,0.9177130534232606,0.9779296536796137,0.9545849646953672,0.9824163889569619,0.9904680438377229
0.9860725114201812,0.9864071820145922,0.9836913304843145,0.9714677289046396,0.9861710132435572,0.9768878019607272,0.9731207248184512,0.9890232095664875,0.9760759422644237,0.9879757914841443,0.9792860497045864,0.9834083918326583,0.9864205178459997,0.9747742694522927,0.9792341093483707,0.9771093152296695,0.9773461628491937,0.9883224253838717,0.9789778132413196,0.9808949155662795,0.9865317052827639,0.9859216254888447,0.9787665085483819,0.9872086737450688,0.9909693879337194,0.9695841734169977,0.9795048879894955,0.9820910227368871,0.9834990681881957,0.9879829189481132,0.988519035279644,0.9758454526820292
0.9765803559800814,0.9805523912318065,0.9849810312616429,0.9740408278618274,0.9803748624793422,0.979394034232775,0.9424598041941047,0.9712021747394392,0.9854371531324362,0.9817578489437288,0.9712198076284153,0.9861070820052242,0.9816199389650133,0.9760138715396047,0.9688810798363139,0.9753127482663806,0.9747687666120164,0.9824610958055412,0.9806207346776078,0.9826230576958513,0.9732853437382335,0.9807340456355083,0.9814164915931864,0.9826398667734564,0.9563114083338944,0.9659993655113143,0.9432271546473773,0.9921700873563175,0.9867795807101736,0.9841121002376698,0.9759428047622128,0.9864563601934987
0.9667532791878313,0.9568183651420535,0.9857523841802566,0.9607509155731284,0.9793413278541361,0.9843434120058838,0.9882172769611602,0.9749976599302922,0.9868717337644536,0.9737832946875703,0.9619715053341474,0.994349033434014,0.9749461103242865,0.9909394586116032,0.975071320013645,0.9781026471945405,0.9814075853102531,0.9784619459439144,0.9713874586142142,0.9847041902828279,0.9730330436157925,0.9814378906827591,0.9591458310387291,0.9791949837810678,0.9711588324993008,0.9842167954007425,0.976371027629732,0.9718589559734119,0.9883866443061989,0.9757103544385216,0.9736956858333916,0.980026010714853
0.9829327145928777,0.9727523655127526,0.9901449688222442,0.9633450787016637,0.9869636832000729,0.9914161710292683,0.9853064977408633,0.9839766299107796,0.9726538315715824,0.9872443936626214,0.9907489731546928,0.9939394954639094,0.9838820222481289,0.986088649422306,0.9473105945970254,0.9455286888179005,0.9841675028986175,0.9921386597160902,0.976633968249852,0.9826723118268381,0.9788895185708179,0.9888640215899198,0.9895231353253353,0.990225566745233,0.9822750571567004,0.9721411773875125,0.9603893790967326,0.9736539253421743,0.9891108352190223,0.9793698713818542,0.9828592945230884,0.9834468264260042
0.9655891208921747,0.9571279234412042,0.9723272983742897,0.9750507216614352,0.9773874079695936,0.967487595714122,0.9672998686644676,0.9891089364956938,0.9688841635419287,0.9712858564513482,0.976356058869358,0.9825721150466257,0.9759014388047045,0.9823492501250487,0.9822924689060666,0.9682739309024863,0.9754787361887666,0.9718408753495775,0.9901625601562174,0.9805481574379755,0.966147702071091,0.9802579531851016,0.9789112793795697,0.9782238849883925,0.9851609325679396,0.9578255430852813,0.9807350394866722,0.974008886406011,0.9596303120336718,0.9645915072159442,0.9752020886921419,0.9621940074114337
0.9809668780488001,0.9731538443856005,0.9698515044472998,0.9825417395899428,0.9775366939469591,0.9761253624627286,0.953711586856634,0.9620289624482834,0.9770714820682407,0.9936848738703142,0.9833451284294012,0.9910625988155104,0.991571276266631,0.9886182879007611,0.9861652273814643,0.9825046942481331,0.982948764262702,0.986539933674422,0.9757419991582684,0.9656161459045838,0.9725906873702724,0.9831850401995205,0.9764781569380215,0.973161116102889,0.9704832918208437,0.9869256212725341,0.9737215492396378,0.9778069974805614,0.9848893726636851,0.9750020784879014,0.9673297198309464,0.9857663232221577
0.9898239225129841,0.9870104914057941,0.9865124141310101,0.9782301595774344,0.9849496275612609,0.9738951004628541,0.9890912893589193,0.9776179103097102,0.9722049069679684,0.9550953326918166,0.9789377824547985,0.972460711439254,0.9839335268328011,0.9879709566879057,0.979590132711981,0.9884111591591307,0.986193680366878,0.9853744215121443,0.9846520287492381,0.991494804119251,0.9814955837433156,0.9652765893587506,0.9825757639129447,0.9940324271003441,0.9857007869137108,0.9742984490171192,0.9807495935069334,0.9847300378018634,0.9574568832136374,0.9863609257656963,0.9821580073976763,0.9566030121700635
0.971809402293342,0.9746595846458125,0.9852262024815248,0.9426132002386454,0.9865917065167009,0.98087616020194,0.9753311614664194,0.96380315501126,0.9738868625129556,0.9876220807489923,0.9728441982629508,0.9740886227459109,0.9899040921443621,0.9919196142083435,0.9879431883349123,0.961657226233805,0.9666021278920687,0.986392690931865,0.9873544229279974,0.9892858257536253,0.9624428085868956,0.9724971646114771,0.976607364827671,0.9820205320445671,0.9396171915927297,0.9672883372164568,0.9882716111428436,0.981304836769442,0.9767844736490096,0.9783151729342663,0.9819291012520523,0.962781894888828
0.9849997584280955,0.9734195179129596,0.9755003635792455,0.9816737493960298,0.9812470977649869,0.9798573279844042,0.9892401187071836,0.9809069679018719,0.9767018305874265,0.9290846973007364,0.9651562689249151,0.9868249070035003,0.9793532186524843,0.9857597546661515,0.9769258040646228,0.9818985576179269,0.9807979545825386,0.9851957225405692,0.9880175583153494,0.9735415000864305,0.9729050065134286,0.9741830977145445,0.9836583297551009,0.9812415626088405,0.9785118358245308,0.9636076057248558,0.9758553369163304,0.9870533818676931,0.98994880517982,0.9907534965324108,0.9742571445831195,0.988341573425906
0.9678269123241886,0.9696851479425802,0.9761934839514522,0.9807947210743434,0.9437675456998745,0.9888811621893738,0.9730313417144865,0.9716865570379954,0.9679071544301329,0.982305090241871,0.9835563597189021,0.9874958270680706,0.9757792548082211,0.9741963707635715,0.9850168522358861,0.9890349765039715,0.9877844418077968,0.9803862239165165,0.979553167317663,0.9696741875799972,0.9859821913299517,0.9786176347755295,0.9770864890442441,0.9872090978894962,0.989108735895951,0.9772697896852468,0.962634521664452,0.9841791638493195,0.987586455792215,0.9892292818710626,0.9635044643214562,0.9581707614415147
0.9847990480571426,0.9861123569015153,0.959139590460679,0.984098689887745,0.9800819112885076,0.9893372144791487,0.98471745816015,0.9891088062909861,0.9480253429811126,0.9863301137720141,0.9803649312308748,0.9833021363032004,0.9859916259957003,0.9777724893574858,0.9799033880018511,0.9752167707814383,0.9734711412708712,0.979604272940506,0.9930717813291164,0.9658877742119095,0.9783490933513745,0.9852142040938491,0.9734217878826829,0.9837762842585741,0.9749558298066184,0.9740440456588282,0.9575346558965749,0.9873532715354865,0.9849044063459554,0.9849005459204389,0.9781609373669456,0.966801413015683
0.9780234672213465,0.9682357379300087,0.9874379231423336,0.9718044706917148,0.9784045352720792,0.9802991709885157,0.9866697732519932,0.9732871994253743,0.9853575400480562,0.9858486301404317,0.9785193690911456,0.9855527612031588,0.9807015774517711,0.9833276838462428,0.9772334217078469,0.975239946780681,0.9762034152572862,0.984990966610945,0.9541647386591922,0.9866882177239931,0.9900991229586673,0.9880811683223052,0.9819931344177754,0.9784331586840759,0.9807839586228447,0.9577243810262853,0.9445803371897665,0.9550256463720954,0.9696503570983063,0.9473057743552611,0.9733968376534464,0.9839744359741595
0.9852372676651016,0.9732122477604775,0.9854197759298854,0.9855195003785598,0.9803450082584697,0.9868507921018224,0.9827066713737916,0.9848428933114385,0.9913030801755631,0.97195352881821,0.9868191670621163,0.9823132990515728,0.9876712680962654,0.9880326941753782,0.9775232201262983,0.9826728047511774,0.983153818733425,0.9884762463894659,0.9899391761598277,0.9827921303738308,0.9837924352965703,0.9862243263455082,0.9827177342739104,0.992175262761563,0.9724402024883131,0.9803372732159361,0.9881339475233529,0.9890263577740298,0.9906011150348047,0.98633020291391,0.9667868760386987,0.9717612280762763
0.9793583287098456,0.9734777655778819,0.9759193774825822,0.983365262446585,0.9918924256945544,0.9783654061302662,0.9900211512967871,0.9822035896926632,0.9836538129647285,0.9745848355522335,0.9311311561226291,0.978973907024933,0.9862143968471722,0.9880881579083985,0.973279801809171,0.9793239617153907,0.9770349371314546,0.989278264929726,0.9702263452538334,0.986107148894402,0.9813370474937865,0.9892025161922426,0.9873200038665293,0.9797933047074201,0.9846153408130635,0.977445103563581,0.9876745439027124,0.9849826797598061,0.9869958510992913,0.9800573861894496,0.9800182000677262,0.9801636909663661
0.9800311151301613,0.9834588712555434,0.9885486794603792,0.9811449968861821,0.9874114424560688,0.9846012708608973,0.9801865040832469,0.9731381799703217,0.9836064513309235,0.9729027635788063,0.9686573278363783,0.9631923779055601,0.982146489297203,0.9781639687640374,0.9836281241581531,0.9917197721924952,0.9886789456264936,0.9856756636150785,0.943694702431233,0.9909627263760455,0.9726138883145268,0.9882719326530089,0.9829020926198629,0.9751713111912355,0.9792113412985893,0.9742047626072362,0.9666275683156412,0.9894897214179385,0.97213387832657,0.9839947658373228,0.9756587863887818,0.9881246325737494
0.967941449627241,0.9621229727557375,0.9901415518532364,0.9893950692611514,0.9905455794789971,0.9797622262394395,0.9789384502658698,0.986139978811234,0.9840959664584565,0.985454123199122,0.9886567077174696,0.9736073326529496,0.9636837487447739,0.9784738273718069,0.9830213556061514,0.9850254759907464,0.9867415072525934,0.9894734726492098,0.9818366166273029,0.9844006224341543,0.9716735920265333,0.992930104097781,0.9923642780471232,0.9835479995417298,0.9702470215288581,0.9816163608685976,0.9706624811766036,0.9774801314770435,0.9803418640771836,0.9800677513421232,0.9739333044937941,0.9733212000708127
0.9799954562581316,0.980802053373207,0.9910417128253376,0.9725485948731413,0.9877730013624734,0.9864833919661591,0.9833390691905431,0.9810096380370238,0.9358736448924956,0.9773243470286701,0.9832044933401015,0.9603453573897003,0.9859359184340372,0.9725164991666849,0.9722345292935501,0.9695612141258949,0.9684798767506174,0.9876780654227297,0.9860136880888192,0.9869281933286355,0.9391633410564388,0.9828402349494326,0.9743750556004348,0.9932729746727912,0.9748345054550478,0.988016201327658,0.9346034981459721,0.9479986541246127,0.9846290169126076,0.967912348592862,0.9783094445024362,0.9728212503041972
0.9790193945213476,0.9861118737057563,0.9769276450020824,0.9626763989100485,0.9703887113195518,0.9929710586935453,0.9730918031436583,0.9855669349588347,0.8951719502567508,0.9660620746864761,0.9648426503546216,0.983629804061872,0.9782655129357768,0.958092790838858,0.9662968849305585,0.9712753214209268,0.9730447681472814,0.9726382982551199,0.986903295468305,0.9865274927421942,0.9800728021469717,0.9830697833069831,0.9881689376059138,0.9876222978379712,0.9746860419160781,0.9907411894637194,0.9675874429490677,0.9846246671976684,0.967316841383532,0.9684620649416774,0.977126625316846,0.973997869433744
