Fp1,AF3,F7,F3,FC1,FC5,T7,C3,CP1,CP5,P7,P3,Pz,PO3,O1,Oz,O2,PO4,P4,P8,CP6,CP2,C4,T8,FC6,FC2,F4,F8,AF4,Fp2,Fz,Cz
2.2912032290876336,2.1950207125622576,2.2330651495820955,2.5400397401915766,2.1217643460015534,2.0750167514604816,2.202947848279564,1.869689065942299,2.1062804341263166,2.0258237184747805,2.005743950975819,2.087515931246382,2.0677150557585184,2.0812126756233997,1.8498886530576129,1.8629982714431816,1.8633951720235846,1.9637975345095162,1.8952179769384685,1.9945049723663562,2.080772347304139,1.9895500632527872,2.3526344361294074,2.136568067179227,2.111275801240441,2.1439955507621455,2.03261272861885,2.011523891026011,2.128522895399362,2.628645486193569,2.084448655194618,2.0265023962344797
2.061316766731025,2.1272165717340306,2.1548038201214084,2.1295472275174956,2.4213843389484047,2.064011610506395,2.227181187566207,2.364985059391703,2.1398913509956765,2.429151813053703,2.321920029198785,2.460132628459211,2.179377999178363,2.473693662737943,2.432910474478114,2.34662855253176,2.2489032506547337,2.278736092612998,2.146366104019289,1.8046292857357649,2.168219735012118,2.1342941317022355,2.386207618604348,2.028520022339633,2.2792897407855652,2.472393116499483,2.414087306117583,2.5806054131107525,2.4556919909236123,2.7648945776787386,2.4713979672170576,2.6114464761766483
1.859434247114135,1.934172125150238,1.7737708664945235,1.9611134311889578,2.288305105174563,1.8211324716985184,1.8112013275548806,1.8189321224414283,2.1084339086490864,2.0036350161433747,1.6404491023370276,2.2283043837611394,2.2744404299479286,2.1532698091103195,2.0741309170193687,2.0524924426089526,1.997855721075255,2.0220981152648414,2.142498851261282,2.156563711286597,2.2422299570580186,2.16843527356701,2.2476103045714177,2.111000543267256,1.9179218479013107,2.2181161133370866,2.0657420485725395,2.1042555551064006,2.3645764677640395,2.2892275057928937,2.3559388173072935,1.987160166022967
1.758352662238813,1.6087057953712809,1.9070504085283217,1.7528604342286807,2.1856334996075013,2.0140490433342677,2.2432290957500007,2.3019217070364313,2.4484536539483397,2.327291984676676,2.057523257290249,2.482535232811329,2.2853848088787276,2.7090313085814577,2.596357496291361,2.023469510746235,2.000849756175982,1.9871881724573368,1.9421712938978617,2.049233654885504,1.9474768498245238,1.8521956230292422,2.053582800928172,1.9111458087250524,1.9776973601511192,2.196388002743915,2.356132814462827,1.882268047402282,2.1076639621460305,2.1611523188811055,2.137329956056041,2.351748678680897
2.1208992108897693,2.1414572513210928,1.9947250606859055,2.2284452769573475,2.6169747192159725,1.9764656947185122,1.7745876504966807,2.3921227943893104,2.212826073316637,2.095724650816916,1.9410349734921393,2.4564195068463968,2.0934723713283354,2.5111774496405315,2.5061303657173855,2.3167012872953836,2.3307233738922317,2.299987394362735,2.2488051428497973,2.1036182637890692,2.367378695413288,2.2069079406825245,2.2527906218548086,2.0755469525338213,2.2201723123785024,2.6642171907199876,1.7732608410230541,2.2361461675663894,2.426443604009598,3.2383653185618555,2.5552838640541764,2.198576951858561
2.023754682331019,2.032235497780832,2.174437031243943,2.0862915300695986,2.086223666590774,1.8318798213199798,1.6416720155859101,2.244281107990342,2.158727734849183,2.3422797049612423,1.949487706232839,2.362368630897479,2.096919617119546,2.312949432341981,2.291434688660648,2.2527326940963057,2.2342436391863996,2.251729903161918,2.2532880441359,1.9011779709035181,2.0252335289344003,2.32146219413897,1.9991650619627608,2.321264665515208,1.814384559045114,2.2720456060405247,2.002145275490699,1.510660333819263,2.157252095792979,2.2642939117803107,2.1240439669257065,2.0552094032646377
2.1076359818889006,2.2133967339796845,2.3337068723413337,2.37715314101104,2.2916273241522793,1.994122456462343,2.371657846114494,2.4502718910435606,2.051617367980615,2.1253569950435005,2.095399154687079,2.5752444078095027,1.807502635072108,2.450929074725413,2.2793272878927047,2.3588799086474745,2.355068661076613,2.37066040368233,2.4400231974743,2.0170994532387283,2.332469207571217,2.1667153133883548,2.1769813509501312,2.1679799407667306,2.4059038821945062,2.6819224105350994,2.256509783762912,2.3872771362563925,2.2802260995038917,2.5561162868820957,2.253409373034646,2.003456134767674
2.1753280538581947,2.200095643074044,2.0791265048923826,2.1497887210014968,2.363272451656757,1.7284423997791913,2.201430166276827,2.380338522303412,1.9772600500073447,2.0037645625916247,2.0409228190872724,2.553062517477627,2.1540633863831586,2.4281271543989416,2.241667151913258,1.9905413756116208,1.9602647341473707,1.9542482483205876,1.9529364660374522,1.6602797361435617,1.9856604488879075,1.977395190552268,2.0278156252429573,2.157847083156227,2.0090402010528385,2.649310920678178,2.0363576938630708,2.097840874915193,2.209740816256804,2.390876123212163,2.307608816861741,2.156501487005384
2.6038199638204653,2.537934720906896,2.6147954728282974,2.4179951627338383,2.3565074057419513,1.477517792964383,1.8997968695964171,2.214367947768013,2.26483301765474,2.031841262949106,1.7837898599384547,2.634613884282457,1.8892871817900962,2.754780645287693,2.616042053456934,2.297093571019908,2.304560280871681,2.31212535950561,2.276708093173101,2.0974453304520466,2.227474916765149,2.197503332230836,2.440697877332881,2.1956994884754857,2.1889300503772255,2.204701201601208,2.338356143388339,2.627160108949499,2.285459556828411,2.467724141784576,2.3348222533070837,2.3282566702814314
1.906474637129458,1.8929981150194697,2.012778625510137,1.9284028342463502,2.3768238215020236,1.4993014826060744,2.2286556732121308,1.9974939731042078,2.0516447793738535,2.2742774880798673,1.8312185577499045,2.4105587369998154,2.197790670921389,2.246614022081855,2.3844051620116473,2.4243422984213354,2.420894101674563,2.4537345263546375,2.3371639263715847,1.9469648296231994,2.2020231882968924,2.572053359986981,2.234347285625815,2.1918657152595493,2.463350430637442,2.217108255362711,2.0048411076372417,1.810252411021411,2.347640068819342,2.2236183799050364,2.3585199204157683,2.1745969991362144
2.3376029369072717,1.9843401330341521,2.2766598655733516,1.8743795357016464,2.6164900445408046,1.7980009618078425,2.0350965614366014,2.7340578623329503,2.2683755369725254,2.0532822076061192,2.3502446506531816,2.5114041023261064,1.8028348259711708,2.4766211823763515,2.491393935207397,2.5240019248083154,2.609664139537178,2.6174896602995323,2.668586848426134,2.1397849801768403,2.287571064934285,2.5570368160580954,2.4917022904278885,2.13165903853088,2.8313963813637133,2.5924804839042066,2.6879466755562413,2.1361389396194492,2.67117789775455,2.136036357546109,2.6218130796212606,2.4133357336265275
2.2085085421909856,2.1092299048651304,2.3735414376514448,2.0777570765502955,2.2463481369290115,2.2486528984822898,2.064039126123621,2.3921424138864023,2.160529712723665,1.8325977528226338,2.276041644595166,2.485257082814129,1.821126043447488,2.5299886996793344,2.4089689196779815,2.2192835286326873,2.2152062242798727,2.234373960834809,2.294199068465445,1.861834110273771,2.2525748885591863,2.3414065555873522,2.4544020208225303,2.0489581440072793,2.475324021410494,2.3121548459137764,2.2919382191817714,2.397463126021706,2.021501046475256,1.8809427626974315,2.1983829737194025,2.413999206973203
1.9217692160811013,2.009704316778884,2.4270895458260586,2.0280830790026623,2.57142017729744,1.8332051679323262,2.7280833209305775,2.3061474429699937,2.1778230635381615,2.0979400286400085,2.069415052088418,2.4430339894059876,1.7710950628705369,2.363014591576894,2.440363129811752,2.490291570798519,2.524025776638588,2.5216352005787166,2.4752998135914237,2.282027589738428,2.0233686185138584,2.3921592624270005,2.2165541481210056,1.979198669974265,2.3815740864610206,2.113021426405789,2.3466449947850023,2.2410658516240214,2.478587569830106,2.356344117255262,2.524031019312624,2.3717851316135286
2.432850670265977,2.447207100056961,2.0309754035209795,2.4442867827326062,2.504981177229138,1.745517019145234,2.255658575903857,2.3897811773980484,2.309217364042797,2.023678787400579,2.14519123345621,2.6234584785214112,2.1313369166219043,2.446689031681214,2.4276113295176565,2.4113101120069893,2.440620626159279,2.4469908135552765,2.4612279052244506,1.8512012944321237,2.201262363731027,2.326552390156201,2.3495759713128863,2.179935204931234,2.3160556862518518,2.437133356127683,2.1750917662733738,2.1727057447718905,2.426977252962587,2.4310444294178604,2.668369467380874,2.182627382291308
2.0380615374955817,1.9933204667509343,2.005415493669145,1.9583422934883588,2.1847849335018226,1.9458927162684567,1.6251979452762673,2.334524139166976,2.2296403564049925,1.9936576607681888,1.9097340172221562,2.3082602987846954,2.252742697625539,2.3631505870409337,2.3323564192704334,2.4215852687598134,2.497258342371183,2.524044283319508,2.243293299215849,1.4845267160309508,1.9562461214363607,2.033163108437542,2.216959208592463,2.167983040474425,2.398376914942751,2.7683029432477135,1.8549297351517182,2.2100698074470237,1.8628517763551848,1.7271089876916002,2.128318665983189,2.0663625271611514
2.139229329587222,2.1272222202988686,2.033995393123876,2.244091574096807,2.53795215144101,2.0328736447051448,1.5154286421129182,2.5321259672064516,2.266463982018441,2.1802754927765675,2.2794008965892885,2.390572321644185,2.149515316354463,2.399820514050522,2.2029780995493358,2.1283706067791788,2.147230341970108,2.21229978989758,2.4738827039267806,2.0137987307557714,2.1356948664547364,2.567765496504487,2.168759546444138,2.13368348569527,2.1972929106595362,2.6431166278574123,2.3802518402031656,2.5257081626427795,2.3878850863583154,2.465960743887474,2.5271867998145128,1.9295629859872112
2.1915394294203425,2.253339342368763,2.3829165623378845,2.124917949456078,2.1405709335867145,2.339993984187111,2.307630315980177,2.7656911711965373,2.3692130239937303,2.029635393475042,1.9805897649225999,2.0907908913424498,2.572724476837552,2.142141892292655,2.1860427106985547,2.2632243967171526,2.2366030963978365,2.2308346890684363,2.414017573186587,1.6691640607303488,2.369062855381567,2.685061009795789,2.15641469848454,2.7005402544445554,2.354694634552134,2.1476246730092323,1.9207619796489181,2.5782051715910725,2.1206678659625195,2.126682092881686,2.1309284645577304,2.340300499557423
1.82116781318987,1.8327426742630162,1.821677094375283,1.8573904223257498,2.4969899378902567,2.0406643193113116,2.285882351597628,2.0773706562971603,1.9095249407530546,1.9756841996255772,2.5093203076251327,2.269377243916383,2.202374723777174,2.3125252153219815,2.3016957026283005,2.256021726434277,2.285309991025688,2.27906878498536,2.197430305289724,2.0016717261606107,2.0968872759305035,2.17479235896147,1.980932279214357,2.3742765297052477,2.3908138011807094,1.8255316030928745,2.2437805130007997,2.1181623642376,1.982136608679264,2.257750707884396,2.4688548949811717,2.6166901288514826
2.3133808350632483,2.259232310157593,2.1959122805346407,2.319015391589105,2.5329511034035104,2.0018428014850143,2.4767644659966748,2.1866178479822564,2.4735859123627133,2.1598093471026036,2.426138915532026,2.10028631668001,2.5422637984498433,2.2457521570752355,2.183383076770026,2.2104488020455864,2.3617589951534175,2.3507270883833673,2.4442948824826085,1.7210575715770817,2.160839003028333,2.381959256325925,2.669410898756513,1.9749320682011682,2.633554364988837,2.2729628808379436,2.177116361284604,2.31004601800554,2.5324867554322608,2.8477840751681764,2.5888924841554246,2.0366351605144155
2.6547011031640757,2.539986242184584,2.555753324448123,2.2350957311099835,2.390230878580826,2.0470344341913655,2.722564494576946,2.264039493226552,2.1656587597937755,2.2831182579129616,2.4833941773285213,2.2437720129939716,1.7485845353869274,2.2312914725065447,2.1073246060151014,2.249493309854243,2.26251717632027,2.2813884187601503,2.438780981866681,1.7134557597094344,2.390708445525493,2.521421863547649,2.287536352862653,2.292478572330642,2.467695952419734,2.5688429612861636,2.94860603872618,2.345998125512196,2.5607863919995304,2.4360017331646775,2.3839981213931845,2.282477843579539
2.6449337325765665,2.57331152410774,2.513365309070874,2.4676465722219234,2.661620231291888,2.577653626515231,2.525073380934558,2.9799978028562792,2.691503734072448,2.5485247930196744,2.406514224637836,2.600900157424274,2.1790216931233894,2.5506035178603,2.5242028884494485,2.6776542194528554,2.690728916006643,2.7482890983812673,2.8553976669212267,2.53555059015308,2.7013293471768534,3.0273677728438146,2.570103935380336,2.4945975716436877,2.5727637008684416,3.1510638178087267,2.7822900643126958,2.773763657907064,2.755891294079769,2.2155566279857006,2.6465165806829254,2.7724598920305112
2.153073459027669,2.2289928001361607,2.0864368290090556,2.30286997543158,2.068124421574459,2.2000415753398985,2.205538231303249,2.779229641214511,1.782194995471429,1.9074502526147104,2.3095803614613515,2.523140067686607,2.002528432572156,2.4899385592338716,2.417045769755407,2.3288899285045868,2.278394658300706,2.2127108790188807,2.706906780399049,2.2142368561982466,2.4506623364357694,2.819443803468734,2.1734980256245517,2.6319926650171492,2.5449596924951807,2.474888258634194,2.0990563588471707,2.2189561030625935,2.603367879107636,2.295982064092567,2.1681503137715534,2.0893941529858613
2.1640679652959065,2.2808308919440146,2.205758731129098,2.317881360562849,2.0831378790893473,1.9700298073401339,2.193289616508838,2.93154392963671,2.543433148958005,2.586714023881323,2.608500706223652,2.3048557217596697,2.4274829505378483,2.328149881688796,2.3393761992219533,2.545257811389861,2.5542866160691613,2.5582129125660362,2.5347995006833233,2.030186099958465,2.1468008318920533,2.5170840422090714,2.403757018967207,2.4307396121297975,2.5627966802793916,2.2761312958287276,2.4476769342597176,2.464047844167545,2.4211833309520174,2.718161264554637,2.0998639072959535,2.2667376501982957
2.051351638753311,2.106059227701773,1.9674267282696773,2.1244810116613104,1.960232851702467,2.1208935209987665,2.0231488930890724,2.0040331521003676,2.4550074498488135,2.1009968082549695,2.1252184280501116,1.9105518537784631,2.0708934645774812,1.8965354280357927,1.882009887744834,1.8615151268081878,1.8545259069446642,1.8552987067892512,1.865577911444612,2.3220557529893346,1.8721016169650306,1.9688742019145247,1.9724513709933726,1.9797386628882818,1.9900084240633462,1.8855005967592404,2.102902592981103,1.809405269267954,1.9542401022430884,2.27582215653691,1.9554090333712018,2.019008941093125
2.371998042551304,2.414971819407783,2.215505396214354,2.3577278553578283,1.9821932650579126,2.2046946376671586,2.0108706423268212,1.9444121399508978,2.0812083521603606,1.959309667556903,2.091208628928496,2.0761640283704565,2.3888271068332934,2.0409767134419035,2.027237967043248,1.9538833176318189,1.9428819692448505,1.9304122466804232,2.0326255374043605,1.9238540980703431,2.1720908246963564,2.312779860196405,2.086005220114784,2.461096944332046,2.1795133251121035,2.259269153082067,2.1852499156717764,2.3625181430810405,2.03589655769103,2.3017964094161756,2.0132628743796848,2.0777636784370705
2.167972943141961,2.1473671000632852,2.2563527099338265,2.1436407752483286,2.2535251938535663,1.8874892200243227,2.279954976817395,2.224308192297264,2.718779978617673,2.180762230592981,2.3859592171805164,2.439272241789745,2.2780080906918845,2.3189292379337396,2.047747654368225,1.997124262911318,1.9665849366478692,1.9789641301544734,2.046917563123113,2.2635344287777053,2.3971928741491064,2.377687191183631,2.303898933074076,2.3786293115111556,2.475770739097514,2.251834871802774,2.4388478328039827,2.1906907796418795,2.607161870410213,2.483538234150946,2.5469140899751177,2.2035802172384904
2.73567113244324,2.7070107635543446,2.476357356380088,2.380588796156093,2.105742464953908,2.252307452715116,2.324081974986142,2.1801204698869783,2.5622642659512205,2.0920973684931004,2.078754943058745,2.114279984381167,2.2238574448133765,2.0845888731829962,2.05955630892564,2.024618499928461,2.018940515928153,2.01498122240075,2.006509052831156,2.5418222559354984,2.259132840841786,2.0127004436543467,2.0586970796516835,2.9339540981638805,2.140807595093938,2.0674830599227905,2.12547256852402,2.103811818607718,2.016819840168588,2.0818283542354052,2.06469599716294,2.182561692228615
