Fp1,AF3,F7,F3,FC1,FC5,T7,C3,CP1,CP5,P7,P3,Pz,PO3,O1,Oz,O2,PO4,P4,P8,CP6,CP2,C4,T8,FC6,FC2,F4,F8,AF4,Fp2,Fz,Cz
0.9884632757090992,0.9760030957344148,0.9831306706951074,0.9784800494279879,0.9746630757243663,0.9612260572996814,0.986191869881036,0.9670241325430118,0.9522650857810835,0.995343182459392,0.9641344338886413,0.9933370674810438,0.9826490122773188,0.9909101111164551,0.9812554541053597,0.9876675675604119,0.994052980578863,0.9900586902401547,0.9902619010441192,0.9538757065154998,0.9729497679186871,0.9912017014664601,0.9491949906477689,0.9793672022064401,0.9395188625170725,0.9702394825432975,0.9757622557096046,0.9444025635605168,0.9793326888326728,0.9348807106802954,0.9826515664552571,0.985205139539311
0.985255028261167,0.9826672550584855,0.9836700574784615,0.9877346871097052,0.9753708338275462,0.9627595301481797,0.9770567014742578,0.9806088209534196,0.9850587674988002,0.9845339891051862,0.9861599685353133,0.9859127897628153,0.9899041121472241,0.9901220342671959,0.9944576766250829,0.9891287294801087,0.977801618660156,0.9895770755524382,0.9901751098623103,0.9815676742449371,0.9822148230038804,0.9927753795825519,0.9845586273080208,0.9672738663202846,0.9830784338829383,0.9839714779845865,0.9596566195952276,0.982580475283855,0.9785974463044561,0.9832543212062054,0.9811451948925237,0.9905592354053332
0.9868037155735612,0.9876430879790842,0.9896757613277897,0.9829068128845184,0.9936217879172893,0.9557280159600325,0.9642839075234334,0.9779624576129682,0.9935379146168265,0.9611751208266693,0.9765806082071807,0.9809620529959628,0.9889786375134824,0.991254174470806,0.9912254197612396,0.984958596563053,0.9918764413895639,0.9934549370746704,0.9953530203596157,0.9808950557416818,0.9640105576418566,0.9915699534346775,0.9896146885992881,0.982415162880743,0.9909800268947381,0.9886586589618294,0.9756637388708086,0.9903024699199509,0.9865871216954777,0.9880819526722491,0.9926863800431242,0.9927728442625063
0.9785468189261558,0.9882446133543161,0.9948820490456153,0.9815012423976403,0.9762223325056719,0.9864667154079924,0.9872512067234479,0.9701259547616249,0.9848952778616172,0.981919836817269,0.9861492665637958,0.9806358542872782,0.9842750264963698,0.9879054185416583,0.9880796052287778,0.9232062095539975,0.9691513470070017,0.9895144774469695,0.9901963874841433,0.9807980067858384,0.9788454777411242,0.98561438139598,0.9655505704032348,0.9790705003399353,0.9752196464305697,0.9612431658470523,0.966779077548882,0.9779258169171456,0.9614588917606388,0.9644769454495575,0.9915320835345208,0.9783706000192082
0.9675886547771414,0.9795973563627489,0.9833191321925283,0.9753153120889025,0.9723150609712338,0.9873076661896127,0.9762804975874311,0.9691698318453269,0.9663498328898205,0.991909333138071,0.9865232393707403,0.9921516932817874,0.9877316394881036,0.9933387463977051,0.9864119874726344,0.9843245850051848,0.9935498011435493,0.9880729511584898,0.9883456548181677,0.9907507786969778,0.971664096731541,0.9758316238315455,0.917612834026759,0.9550314341208147,0.985219761535927,0.9730651980995262,0.9289295037942965,0.9770358125939158,0.9938049090479808,0.9861917194149268,0.9805964074408867,0.9856420259623562
0.9825060207709702,0.9799599882057329,0.9834553776246688,0.9727041770140664,0.9566683945017178,0.9618559668616778,0.9860573309857366,0.9814607934858645,0.9863941081415081,0.9820753159388641,0.9749343777370734,0.9789961759065314,0.8876959309142558,0.9469853098916949,0.9652615282964128,0.9628748781683695,0.9797360951109914,0.9751001504496527,0.9727655765308609,0.9821518511489057,0.9255184211145535,0.854083290153816,0.9671866984309703,0.9747662004179299,0.9719556320473485,0.9646630161612942,0.9708275237259806,0.9817707541133988,0.984755425372855,0.9734954187601088,0.9756836320988774,0.974428437268251
0.9878617057681155,0.9906216504739013,0.9934963590982774,0.9944475541352703,0.9935668656535276,0.9845188709857062,0.9881509351642278,0.9865300519440263,0.9863512470046352,0.9894387761613167,0.9846889753401261,0.9903367392910637,0.9883971150172944,0.9870666978407772,0.9846599804894386,0.9832572635517662,0.9924354447019323,0.9883793441835224,0.9879050321497789,0.9931584071286139,0.9944175467805338,0.9860046563989631,0.9937323012238212,0.9875971353135704,0.985140721364055,0.9912229793842764,0.992294885906634,0.9896493345862706,0.9913449041608,0.989999045806692,0.9939411807007626,0.9887118846443653
0.9725586812024655,0.9594752163872161,0.9637900167465429,0.9637693822555811,0.9869567132683942,0.984578689379803,0.9866614925458111,0.9735169893720846,0.9812216051020595,0.9700022169079369,0.9707123142186795,0.9936145392441504,0.9759288889737228,0.9901474705720377,0.990860950207618,0.9900234545326049,0.9937868649442004,0.9835167953419051,0.982874210572286,0.9896797859930929,0.9567913201383783,0.9814899161506858,0.9656907657580495,0.9863126768710583,0.9796213602070584,0.9863980470569539,0.9832023299912046,0.9660528347154832,0.9743125993345021,0.9750073053943218,0.9639218791894187,0.9823498125396309
0.9889680250435027,0.9787839321741273,0.9846282334415128,0.9814259603067752,0.9863032160450786,0.9768063691636767,0.9801380739196426,0.9704285113691383,0.9945404902649194,0.9793642386287613,0.9856254232608512,0.983067751929431,0.9710274508433645,0.9860449402325326,0.9907751060248651,0.9876245511931914,0.9715355151008466,0.9744104694864929,0.9742403870289132,0.983018046247062,0.9806372527463744,0.9614072552456658,0.9481032791766213,0.9073867552523741,0.9590968785390124,0.961965668907921,0.9443549664351425,0.9732638317898697,0.9716470422347372,0.986722050286099,0.9828260474470043,0.9897222795545855
0.9774200836142841,0.9908345522541189,0.9843729329195158,0.9850151191534909,0.9935217465961281,0.9793642973964707,0.9875031408234238,0.9927320097625929,0.987453340762663,0.9898864968107493,0.9842032733636533,0.990044367907386,0.9898671717874639,0.9859157401197077,0.9945408664769069,0.9938275752728776,0.9865767540087724,0.9909920301753509,0.9904694400165138,0.9755066886765885,0.9767018977501909,0.986181350844805,0.9903728790330626,0.9762084338559517,0.9851394872124929,0.977002681773706,0.9780203787218679,0.9734224919238753,0.9785951514879879,0.9898713659116838,0.9406268662548375,0.9918338896710449
0.9824815307566088,0.9197506114497743,0.9741339638062502,0.9593371609275233,0.9516795726192273,0.9920789920649769,0.9792781229883468,0.9875419467525799,0.9847790236841442,0.9866990236172686,0.9792844492866339,0.9786699119169976,0.9898360364781489,0.9883888004123674,0.9871346701254453,0.9865669078291536,0.9954406279888584,0.9782103254637179,0.9813822572445442,0.969006804123389,0.9791068651763624,0.9772922017890647,0.9721537638458566,0.973849419425477,0.9774920571223125,0.9691306791971214,0.961986648091741,0.9673755209088648,0.9870395738025548,0.984314465018795,0.9827670874945981,0.9891579047415965
0.9860862181793424,0.9787330575395349,0.9749033192514553,0.9816517703972759,0.9751900186319712,0.9776435047762827,0.9032138232842987,0.9791460400308633,0.9554920493674994,0.9784870151487751,0.96035057556017,0.9748723632473846,0.9623383022653557,0.9898442778548768,0.9888771069889015,0.9878120535473053,0.9835784111967729,0.9929972629390257,0.9932996561572526,0.9895885009079479,0.9756789121233225,0.983457651888525,0.97842686077069,0.9584366203183532,0.9888147372927186,0.9864491612433851,0.9869575428571151,0.9777515340974132,0.9828341037335843,0.9760307658908931,0.9708169863319808,0.9825285667774865
0.9837600893982675,0.9787306834292887,0.9855417075820809,0.9833071262003723,0.9832035120555991,0.9790558863233937,0.9864098663906509,0.9776177807102461,0.9861600403221721,0.9872548718767187,0.9866852567896202,0.9869011692119044,0.9743578458286447,0.9874611328551064,0.9917831197661403,0.9860417077807276,0.9920659596281243,0.976410249513577,0.976835918642398,0.9796887749944307,0.9710025375090681,0.9850238867714725,0.9663224917999008,0.9598424366745797,0.9558813459399741,0.981538490888995,0.9590123998131027,0.9778682765308422,0.9842687463170389,0.9897127995934228,0.9723988547377582,0.9920554165884845
0.9383803765386878,0.960401160577459,0.9591837022007392,0.9681552215026167,0.990264283888093,0.9800632310608917,0.9316985750194902,0.9713611204011459,0.9881274982796873,0.9755893961660305,0.978110766339819,0.9585958195884371,0.985538449918652,0.9746153970414834,0.9793750965354963,0.9800244071540567,0.9905854256083336,0.9914217924995122,0.9916953932236579,0.9773559878993308,0.9627331584979464,0.9579809977544019,0.9655575249128922,0.9782780184187868,0.958512676446646,0.9821669724953914,0.988914746789784,0.9775749843992549,0.9858342984750478,0.9586024075471254,0.9840584856530982,0.9672310419822188
0.9787641421022046,0.9816273291526985,0.9891999642997408,0.9728047389809185,0.9831917428765501,0.9923243713965243,0.9849141904958938,0.9796172600480081,0.9891752048736121,0.9905235688626063,0.9800875837250833,0.987197291698276,0.994481813609398,0.992647067887905,0.9868887007115812,0.9873710461076386,0.9912431186925275,0.9862081773270366,0.9860555762251971,0.9864770664760816,0.9767341794957695,0.9874895502458448,0.9736421928462403,0.9886584321920944,0.9780145491474688,0.9867045650082376,0.9828585401171401,0.9760053798557617,0.9744110676424914,0.970648636802267,0.982914128855106,0.9914092011871424
0.9712414998266834,0.9747179081490633,0.9602767357732189,0.9747963305117938,0.9787108077665132,0.9417282424107672,0.9052830968662522,0.9674292222585857,0.9849806696543971,0.9805687890867675,0.9813469766010483,0.9682911109025041,0.9912400949600273,0.9832512400415581,0.9910809747420753,0.9907174982986571,0.9910012634064307,0.9588768032469454,0.9641602648686011,0.9387091468786182,0.9787741378979162,0.9796472635240333,0.9766131537947249,0.9607252954122227,0.9558665327227556,0.9602629896862167,0.9734343704994016,0.9879044692557681,0.9836315877387622,0.9818967723482935,0.9859592498635109,0.9728490582602699
0.9838792750141482,0.982196882538933,0.9709284703013278,0.9801208253192156,0.9891770575539498,0.9761969971353324,0.9660275228072764,0.9825158789313909,0.9935180230110437,0.9880083714738463,0.9720442529219558,0.989406227888286,0.9859204910338418,0.9919407198138127,0.993885853560901,0.9937737034601997,0.9907820263691804,0.994047058402671,0.9944946007985562,0.9829955372218155,0.9847530598787472,0.9692790210248282,0.9876279785758582,0.9866796962749006,0.9743104265527434,0.971635288964427,0.9875275004394867,0.9706865910249306,0.9870345513707628,0.9912806609760556,0.9740373366371198,0.9789022046777188
0.9584504813094619,0.9804988510619363,0.970714811503335,0.9791377105825871,0.9798208105143068,0.9459605411877374,0.9746632789925342,0.9459299254163822,0.9905110674083957,0.9855467590459854,0.9488276351002943,0.9790887244277089,0.9869412105251428,0.9794183747347961,0.9878599855743952,0.9935301987683842,0.9963766005464653,0.9255976832727608,0.9328846804280045,0.989384886907061,0.935553734147732,0.9542250411219682,0.9640146111299492,0.971617964725001,0.9749522308574381,0.990486622167665,0.9894322855623957,0.9383033607401214,0.9764704644855164,0.9723806732165882,0.9892814811845513,0.9711972701540617
0.9746751476568991,0.9277854998730213,0.9862155001167666,0.9690955586657417,0.9619670364003967,0.9891152192892866,0.9651393572699847,0.9734371942568832,0.9802514626241219,0.9864005603100828,0.9880592296838728,0.9829527320134318,0.9915740160461556,0.9873996816741324,0.9899093238721529,0.9907027787984394,0.9844171828973609,0.9908816802139881,0.9907630251909634,0.9693407517770171,0.9772710243078242,0.9917072320250018,0.9533378109344303,0.9786021898932783,0.9803971645452476,0.9711773076855165,0.9720095692580142,0.9693669875698289,0.9752435410916547,0.9748465191416834,0.9905567960629655,0.9900247439698665
