Fp1,AF3,F7,F3,FC1,FC5,T7,C3,CP1,CP5,P7,P3,Pz,PO3,O1,Oz,O2,PO4,P4,P8,CP6,CP2,C4,T8,FC6,FC2,F4,F8,AF4,Fp2,Fz,Cz
2.3328360300277393,2.267264211844365,2.18277426011036,1.8050273367866285,2.166450469622635,1.795822563507885,1.7872675002751774,1.7040526765000537,2.132081775292205,2.164691015458307,1.8419350280504563,3.0662970084104306,1.959147180877797,1.79924059295045,1.8108839275095963,1.753618255483861,1.9019159404415245,1.9188958370613936,2.3086803755130134,1.7523711278662761,1.9104912473569438,2.8934305531900546,2.1539339683638943,2.379470450706715,2.3349689060830094,2.22437703090564,1.6220270255557179,2.2951737776764647,2.262264319415139,2.094498900452108,1.946086714794029,2.1196618628689556
1.9286265208719149,1.7826680584476664,1.9257315600452378,1.8574636290201945,2.268293147313343,2.1120860183304195,1.9593549640099457,2.2567298241768015,1.8485260941569832,2.4567457682023273,1.6829744555864918,2.6431811143403765,1.8746051740272525,2.1081960064937495,2.160388711989864,1.7141934730517772,1.8963682862193665,1.9341023533758852,2.117176636553127,1.9277996635684556,2.231890388807019,2.677018686294499,2.1588209068877604,2.2474653854621574,2.1803593691422627,2.0718545797799512,2.0363511960208305,2.1160071320299085,2.165347209483976,2.1691583723342376,2.082926656911977,2.1920785331828494
2.1396534376833958,2.2717978975441766,1.5766677724181075,1.92023379822392,1.9686002001168617,1.8525159233125408,1.771300582457072,2.079122096637718,2.192035568116705,1.7080393080700387,1.4276332509238208,2.3285840779773728,1.4426551277086772,2.1150221746116955,2.17494631588256,1.9663539834207735,1.7912250983751636,1.7923915132393593,1.8754601135249154,2.080978861947005,2.0625085255050783,2.181958064255021,2.433959908689984,2.1002049332604384,1.6772582669706457,1.8144621804335335,1.8718866553904137,1.6492062392780409,2.2878342315170848,2.2637375404536573,1.9390921517478519,1.682247087583037
1.7453827954091037,1.869849153052491,2.072313179995925,1.726883838687057,1.8743817243035181,1.8797753858137738,1.8366397959593381,1.7028613731333127,1.7417583330760402,1.9306503712660101,1.5885710969231963,1.856267768168871,2.1022314604419186,1.970396161502469,1.7152507039885474,1.702714418660865,1.7350780757998596,2.02918438431015,1.7743085800020162,1.3826763675475402,1.7220718497773488,1.5742211030227102,2.0013685940440995,2.0970136320352784,1.9677888675282003,1.7671262018228626,1.6399412563768334,1.8786138063504514,1.689031998527628,1.578793529585497,1.6616853756181242,1.8421040898676773
2.5727910304157744,2.323845514723455,2.2711383037173656,2.09442217779829,1.5410765144264387,1.9635632445835147,1.8536463804385999,2.2636760825681415,1.9273804034973012,2.036671126510643,1.654902897782415,3.2345510776341873,1.8289859060998068,2.080017783866876,2.2227167724432695,2.1995060217601994,1.9858640889978447,1.9835862629495975,1.7254199759348878,1.704487480251952,2.1178744162027394,1.8275022169452375,2.600359279337831,2.2195880984850374,2.4742852814728695,1.9072861569867192,1.8019811118515037,1.9815850852055836,2.104554433801124,2.267637295856949,2.090061291239738,1.9548507867325862
2.2585044135943013,2.1411319301542515,2.040939359468733,2.0165816104708854,2.476511585526972,1.8923023263737522,1.9984240149035513,2.4268837129970287,2.048835218284183,2.1506671226274543,1.867087049986862,3.3674865440908235,1.76125273216259,2.0715768823033978,2.253540769807777,2.187917589377736,1.8873755629827695,2.306857917097802,1.9934550774226156,1.8697068737377047,1.7115402950830796,2.398097457970776,2.325895863428293,2.2155395252148424,2.0255513476817035,2.384009913253903,1.5433080502524965,1.9308733578534656,1.8393505641413346,1.9749559776091115,2.0610170756425252,2.378346080350811
2.083097766750191,2.184871406560854,2.1431525254531207,1.8469950802442783,1.5756269210482052,1.7334168063374462,1.8953084775896756,1.7043136289048078,2.245279667884802,1.9193552279836172,1.6862815743506352,1.8000727861208268,2.3732178421218464,2.1234255945023577,1.9039332296539995,1.8195840134134946,1.8365744057348676,2.1180934261600832,2.0661082242954176,1.760131421733155,1.7537945276427418,2.080064691099462,2.136586261153613,2.2878571618074144,2.243953284091738,1.616414894536337,1.8096076060966013,2.1803971669864897,2.1997515868485933,2.156986875620268,1.6269633395690417,1.9562947675525801
2.064947283469296,2.3640024907995016,2.0012097466973415,1.7293050369462013,2.0199635425378335,1.7696016496997005,2.027238745870367,2.17198675121804,2.669709182154784,2.10822155715896,2.072626438289888,3.658282254963436,1.9430338122494595,1.8996072345131763,1.815120098151731,1.727637716469182,1.9407569565512277,2.30342988943926,2.2928916226429106,1.8262217583733706,1.7244064169218536,2.3906650070155835,1.7940668281685102,2.21896534959747,2.2946298489048864,1.5761292914683747,1.4697351824491747,1.8755078350157257,2.089353130985902,2.1590771161018796,1.8204463618728848,2.059401869627978
1.9964213783169942,1.9535377150388826,1.9314808381485968,1.9159673230008156,1.9588143528300632,1.5836179420713143,1.8745692018661981,2.5036479753465137,2.372433747002517,2.667757592446517,2.165096070594285,3.281092042543969,2.180675644975529,2.231198185270759,2.1759368829121666,1.8292805025423764,1.7545098500552647,2.547846637954566,2.7133426619267116,2.07758999769832,2.03623908205449,2.835891055075764,1.7511415105933186,1.979319310633179,1.7478773295743077,2.0278236015984348,2.0115731882449723,1.8289873779290768,2.3217027990898824,2.444944164539936,1.9860393440809223,2.0682257969561095
2.12553646576052,1.8858757935037704,2.014967759927415,2.096812734804136,2.3014119149057986,2.145093302513906,1.8590273143920781,2.397452671850885,2.199116429394196,1.8858499169080467,2.066560104016239,3.143745703657391,1.8622098264786864,1.8346845367150835,1.9973945443456642,1.966633510236939,1.762142883336201,1.9083134299109172,2.2848172317816666,2.113081197191359,2.124007832974162,2.6178452695937353,1.8846809986151067,2.181977673575317,1.9727873328097485,2.409505934368259,2.128687378247717,2.2938456229549278,1.5534460196841693,1.5457630126511943,1.9154661890563913,1.9596071676824722
1.704147012641783,1.9514881042899335,1.890280684671997,1.7535321641056598,1.901773600321933,1.953871510223362,1.427461559288129,1.7442482352128066,2.5836747786481693,1.9566922279181287,1.3407652465175182,2.8409253984630376,2.20040578065432,1.9469475287053375,1.7462259773085897,2.072802114959971,2.0209998336324366,1.6375730204056755,2.2650948173636114,1.6208452527968091,1.5686648903529925,2.4816208049435047,2.2161782667398087,1.644032101540441,1.7650707047681313,1.8878263170595853,1.9397235408668871,1.8365849229727966,1.8563055978081442,1.8380453347720302,1.6198020057764195,2.211379014412936
2.216320875878956,1.8499780451650236,1.8900793691504532,1.9367005069616972,2.3640202355972106,2.431030186913049,1.8602981991079814,1.8196071231059257,2.1060443584266957,1.7997977169728465,1.5609807831834197,2.212212740810899,2.064558336000213,1.978729846576065,1.5795281548887032,1.6207040881971546,1.7487950208195053,1.9064375991985458,2.0624711481705273,2.03674683686559,2.0886244632452806,1.8935172207401822,2.0200864611212306,1.8411416015976771,1.848384144993391,1.937623120064893,1.6159057330765474,1.5591069597645586,1.7482810472271686,1.7468371537192802,2.1364448557262716,2.101993256809497
2.1439230616303244,2.2635733170850294,1.9964513941787794,2.1682636729398537,2.131538855819293,1.6397459687290872,1.9541139930342062,2.1968729293669367,1.8344020409972321,1.584716190388829,1.5771405983268179,2.174505979222096,1.8120980895078822,2.039356201311282,1.7794346258128644,2.0056049063634287,1.620128436965313,2.0281637399250823,1.9712320107377999,1.5204132052320223,1.7258788381990164,1.5184882146827823,1.697560442885003,2.097721102364754,2.1835049311195034,1.7473326740449882,1.8190887010327002,2.0928369981714705,1.9489125301383576,1.945807676523625,1.9743664015932667,2.051548542110906
2.1613631972365215,1.6974275855285212,1.9257826633856159,1.482335872556215,1.9556876802037468,1.9753294409982207,1.987852843038816,1.76872437016346,1.991783876906083,1.9168279517378335,1.4106087332207362,2.892800171607051,1.820153989825115,2.2647995332406636,2.211887397985657,2.091277215230538,1.879406210475252,2.1270168346594533,1.8631639517966434,1.9554306213149748,1.3801211078429005,1.9572250795284174,1.577703292717343,2.0057785076572197,1.6443703775319822,1.7247375269616354,1.9586063873160606,1.8410284837603756,1.745638870438736,1.7162038015310024,1.7665322220929516,1.733844508407235
2.3071689596217837,2.1123341467584256,2.0581157480000978,1.9188798005671799,2.0238038766386484,2.4886097280169914,2.2144565044337705,2.4924158133876095,3.301287951652994,2.2402087619314046,1.9298877628555362,3.3463289892305244,2.495415757637304,2.21916394266569,1.9062444604935547,1.730878130811175,1.8677560761898904,2.19916531383174,2.2571172809559257,2.125550048562222,1.6862884429866891,2.5695571189582704,1.8176295763764283,1.5176877580117014,2.2885192083773043,2.413049288483448,2.5165033509711257,1.9600481868464685,1.9268879491389241,1.889172924854477,2.1411744446935903,1.8620397929240873
1.81303416546708,1.8010132598612183,1.5907261269834465,1.7147834193432465,1.4896743338651142,1.769609108895105,2.5344197154193453,1.9973750698748924,2.6439138891675493,2.056158606877761,1.7321570945210594,1.9343250694570833,2.268323331186219,2.1139632137191344,2.118094743901757,1.817213216046395,1.6097671830895095,1.3114508354330001,1.8735350812348863,2.185966304365979,2.2384912596347797,2.226539736364906,1.917989466295661,1.8621469790039629,1.8517187169815226,2.166943933745197,1.7567091947573763,1.6492365072879593,1.798747280197955,1.7998428156649704,1.880751620506368,2.1894419636122433
2.3692257208855794,2.5186086619060104,1.8387563046286775,2.2835692679228154,2.263358922656572,2.4079263048873987,2.2110312656260906,2.418342348711287,2.403428363433416,2.163684284702659,1.7547642889927737,2.303141491007553,2.4593455429121165,2.162739101743313,2.087069682651978,2.2160987291469056,1.9497616445787787,2.2953331097684093,1.8576909201623653,2.2122436097887817,2.2103209180461345,2.628876657497456,2.1355391038424014,2.1519480932949304,2.0773700321213906,2.0356763318062012,2.0834982624493574,2.06929137714729,2.367026762413602,2.3897398696316134,2.0642239405645486,2.1992070217018873
2.2940704374202423,2.14669218780649,2.402667233503809,2.0355525903493517,2.325104927744081,2.329551793022527,2.418699982198652,2.257143904607507,2.7327656889954763,2.0935696946661073,2.133050629166625,2.765020799064609,2.229932277134173,2.3689084995661975,2.238918913664379,1.9824795668936777,1.824388635173767,2.195362203122384,2.334051417130882,1.7928405085962367,1.8067828569175681,2.4768290167434004,1.5978959287218228,1.7577808773637125,2.0205125118090206,2.2597513740260204,2.307609717669128,2.0005346362898058,2.1336057786539313,2.093097079971313,2.101842926526111,1.943720340167821
2.19551110580775,2.09626701436286,1.795397141736808,2.010767880591719,2.150295301576762,1.8177002855776945,1.8589028059731751,1.8973623977596554,2.1706789464180716,2.2435957930409374,1.61181779473395,2.648670558131333,2.0905268629769687,2.444362296680889,1.612487189214196,1.5627471484830704,1.425084663294096,2.0733614057897163,2.041774133744083,1.8341736950176113,1.9108475310932929,2.052046760541286,1.816354178580332,2.0211758271847096,2.234380588968526,2.0221085212998653,1.6874464642549107,2.1333095627563505,2.139149757984321,2.0481780546864385,1.801370145767655,2.1924167009941797
2.411352268640357,2.4212470352674913,2.3249900326379023,2.1282748367948026,2.1072997576699883,1.9972624245421557,1.6215017619050074,2.0163458970455124,2.4064647823637095,1.9646675716868798,2.025103394683847,2.9335859377723548,1.9670488335039626,2.2597292046359176,2.0216244399807772,1.9917240089860486,1.9283901168232815,2.2522601218748264,2.2214485729739746,1.6605807467664548,2.096342415781519,2.7712680354035046,2.051980434518688,2.454117431695156,2.2714956768215147,1.971318842406645,1.9690683324485247,1.6423328277884663,1.9922027310194903,2.040121660402716,1.7364320516330038,2.41050967001063
2.3998341555161242,2.318029584411472,2.1658130704442558,1.6938683812149058,1.8608996317598216,1.6608017730273286,1.8700406863542867,1.8979209594854785,2.1048122098371884,2.0061953564442043,1.7828677780961684,1.8061626876426928,2.031692521114232,1.5621839093473113,1.7188810543416422,1.8905534573946539,1.8349115640464677,1.8669189082212347,2.0583622426601256,1.345710071052259,1.7084390135572132,1.8925575381048239,1.8767082788143583,2.019524528866737,2.2758704136714463,1.7736972743816897,1.5549504270612329,2.2359625836514585,1.8610599529395744,1.9332874935655515,1.7436837277116128,1.8824870180663305
1.7157857326736587,1.8591415976816568,1.8315771587172904,2.0978233049741677,2.0004939181951436,2.076582622152232,1.734044464749947,2.0355871516028694,2.189087340260856,1.7757492918660758,1.8627699063261134,1.7523598373873375,2.0064136442993,1.6111901170921452,1.708128832736445,1.503835587812568,1.5509491795238834,1.7911598682550502,1.9182368774920442,2.1111995342641556,2.191493978703538,2.3887554007062985,1.4095789301842503,1.93464017917964,1.4111440509027213,1.8243918495096105,1.5064907387097113,1.9195313662827003,1.953290319262302,1.9799228871831391,1.744194554596048,2.024685808136496
2.572023694499761,1.970374338952801,2.1703414220572057,2.223741149044244,2.19687713119083,2.8060524654183707,1.9974984468600072,2.301359938825791,2.5172228459663573,2.2833070379923184,1.6217847088743504,2.4201071226328192,2.037913899593342,3.449258964603359,1.965295978255615,2.1615768371490924,1.8265403629431092,1.844381342027364,2.199368869904767,2.020354677739066,2.171383086736413,2.5787339093143853,2.026057774413598,1.9038158215045748,2.3700004180536225,2.320423824318765,2.1818350215504627,2.231327740858831,2.0862179438715795,2.0968594618887733,1.9922064090570955,2.1760312594443074
