Fp1,AF3,F7,F3,FC1,FC5,T7,C3,CP1,CP5,P7,P3,Pz,PO3,O1,Oz,O2,PO4,P4,P8,CP6,CP2,C4,T8,FC6,FC2,F4,F8,AF4,Fp2,Fz,Cz
2.397222246876041,2.3386110439319414,1.6871749534660192,2.221273493871956,2.5436477959665207,1.9601767404105004,1.9434022193738818,1.9372541788247122,1.940014882394013,2.152549992453854,2.1392454510002477,2.521170650542874,2.364110325189807,2.6911764916619467,2.405178486812668,2.4159571091544763,2.228997418573953,2.3145603281150144,2.3044651692446823,2.237177723424381,1.9394304924131043,1.7747219420838576,1.7499720317355432,2.33988203539451,2.2184199704373935,2.518916505347357,2.144169518713409,2.3541427010829743,2.5142689043666286,2.350782515890438,2.679944791324978,2.3734245563266865
2.331121115243798,2.3364772658078063,1.9550757632539326,1.996361116507862,2.014695693832473,1.9086968371189417,1.9335214540225945,2.0476861758542353,2.348447662781513,2.18975442249525,2.251490253198949,2.3058116275066385,2.401092813667539,2.3859240067304825,2.0338958787853123,2.044972350800604,2.0280500335863274,2.2940221737042767,2.2154729405835494,1.9919244166316359,1.903964440147961,2.3172102955667557,2.2230439150428203,2.188260395386732,1.9104789753620899,2.2533998775684876,2.4580551767640433,2.0571662101981794,2.4824822100873685,2.4826379116170134,2.0712489163467653,2.645124574432908
2.3719779423307554,2.3766220871948502,2.0334168841116815,1.7816160758181276,1.9632958563270564,1.9399129948981066,2.062465604581653,1.9076153110569236,2.5164046411750736,2.032144182165405,2.127789616692846,2.418099604601832,2.8074196700786382,2.66207062136803,2.3711693644880163,2.4148582730616903,2.3718610490416894,2.5779149525369833,2.5260532118978514,2.2490399234158236,2.413211601179155,2.525698566374642,2.4469465219893394,2.1975251288370203,2.2657379079300073,2.247914362366413,2.0237728737425975,2.3259847472052657,2.427128658216215,2.423367584262359,2.2008311855841285,2.3334473969279697
1.9945510497876477,1.9879654118676884,2.0045412713348245,2.0553540688148924,1.9931249020610415,1.9144924379394939,2.120406449655569,2.098539399239007,2.3063553683004643,2.0009030613550074,2.1556406342841807,2.1239794876636293,2.111939120606287,2.3666576424477768,2.213674320413781,2.211141930347142,2.4615493349944826,2.419999863602479,2.4285690048147646,1.9348425258153017,2.010791265103812,2.28464697412715,2.3575320533292743,2.1934797605097036,2.1770753924586606,2.520259386409159,2.221348991061358,2.0026118484621565,2.1659904594481074,2.1460243809929094,2.317862609266831,2.306289024707552
2.2525720010674912,2.2445126175042804,2.091222400001234,1.8944661585203741,1.995163034063818,1.9617103373729494,2.0735986874693175,2.1780287093986144,2.0839941726695987,2.3776527106179435,2.210198270125865,2.2211163258205264,2.3370048568160966,2.2974374190360267,2.4152908409069536,2.415082966616181,2.2744637454431453,2.5183855219713505,1.9291722187720324,2.666597835923456,2.432617075195108,1.8388908143685438,2.0163897253782372,2.078512940016266,1.9780305519246124,2.35769152091195,2.2521629797328324,2.1208733138429023,2.1198512780331153,2.106884583019187,2.1556492184208382,2.299103051202299
2.2243554929768403,2.249047822523384,1.9512676755195413,1.8381835730035887,2.0468620278167386,1.7559544896712906,2.0501057787916594,1.8389764232639252,2.1027600323845412,1.6957370035851362,1.6898346451078825,2.3575575489686043,2.286007798480942,2.3907518030145014,2.2140625406446537,2.240254891176597,1.8870777437868436,2.328652353804292,2.010240568298312,2.0741528058303422,2.247618573655861,2.010571228402502,2.0396727324260793,2.2085206649545546,2.3579161986379,2.190696339848043,1.9723379982242708,2.111539722815429,2.6096166297578645,2.629031949113094,2.44376836587969,2.349680217527399
2.573078957458529,2.5716250429675434,2.2546208742517213,2.5791696427000863,2.6625633013704917,1.8998926750489693,2.1647150626324647,2.259801310115961,2.4707924661865888,2.486635285830068,2.396278872037364,2.4064048063955177,2.1090919374848145,2.560645056997073,2.524124967551227,2.5247724374865554,2.4778937516254773,2.1025621371280487,2.5116723735857063,2.247019851807786,2.132949696087249,2.3454146646403435,2.3200012400376058,2.2863471000237303,2.5510650752866186,2.5003586566876517,2.428281935077129,1.9829087689596099,2.335328751199182,2.335776930617366,2.5704176805412833,2.56157434184419
2.5236932557066547,2.542588774792266,2.2476329207987913,2.4795500447725387,2.502047248278793,2.648227900067411,2.0255345108561693,2.3022457463855317,2.4060955835220814,1.9121189427878071,2.3458784707175457,2.4451027879898857,2.288260667326534,2.5727309812392853,2.5054936812381827,2.508894161279267,2.4917699835301645,2.333431710421712,2.3828038148572253,2.165938972200807,2.0213513333377247,2.2032010985159323,1.8138835993621498,1.9571374982022085,1.6987187552394345,2.2772982038876295,2.3463502306488206,1.8893274907278859,2.364878455092886,2.3819222650315006,2.483708300063591,2.458739375305791
2.4144354310189176,2.2749410265833663,2.0410325796667186,2.0218538002112587,2.0891372230541663,1.9664479070741279,1.607774768682076,1.8950318670792026,2.413634467724015,2.0594331223239037,2.1535070148892177,2.1650944032435686,2.6328770619370463,2.401276377061549,2.133894301520513,2.1351313653180597,1.9219296681258207,2.3495272782206307,2.4681342172256975,2.3156099258334324,2.2431890309579043,2.194417011654374,2.1450044445267635,2.081685580832526,2.203220585811576,2.070963383177545,1.8503788990249135,2.1499697710431067,2.2182985637279664,2.225142768070219,2.2454264121244774,2.4427352479874274
2.6561394998160823,2.634453885882523,1.9324747307440702,2.3625270556724707,2.3263469202689664,2.380400276593703,2.155208337569496,1.8567968386496192,2.185317576788835,2.1614339495722876,2.290985925681968,2.0380915118667535,2.424990103757828,2.296443185453246,2.0829020113831658,2.057789642557145,2.040954202953363,2.545658732162446,2.558807623013886,2.318142862626447,2.4252907059046844,2.54481493947928,1.9782548824161001,2.3758390219614784,2.2967008593156693,2.2471229464224125,2.411584907100917,2.482016977300898,2.298787477309907,2.3213782710536934,2.201354009220376,2.3541932097902687
1.8431790153523833,1.9076343284478698,1.9456250903771972,1.9715070972639765,2.747369594985857,2.1026347417042226,1.9857299689080186,1.8097496704326375,2.237152324811089,1.8022958072821789,2.2551757161244574,2.034782925831605,2.372862818418939,2.219092643283526,2.26263403278469,2.268654362564124,2.0178733680394654,1.9129938551567758,1.920064657429614,2.2519395533088833,2.145417227260399,1.9784590339560717,1.5740387961789573,2.309011509746323,2.1450988490835146,2.4910198946194466,1.9214176685582225,2.194078554692523,1.9584997980624625,1.924593312086228,2.173267265379751,2.5494160747902015
2.5396860161383037,2.5511953507377423,2.02576419634827,2.1463225672437405,2.1446330428710643,2.126900145580139,2.3857723931092205,1.789114088846159,2.08972779126914,2.0008452835127346,2.1776687128286074,2.176077291590938,2.1588062536200714,2.1940894490620253,2.707545207130647,2.7330548271286346,2.319407257322604,2.233355285079124,2.214498151823519,2.000719474576779,2.278827917177407,2.4331937356560447,2.361444573770842,2.0842420533672095,2.09546005868452,2.113137821772833,2.059066896237296,1.9937434303375487,2.5584865841585844,2.5446225941469596,2.1111941312805507,2.318835252446311
2.5660048564915843,2.56924364518919,1.8977823167221182,1.8472690634016984,2.5017424510680817,2.0235163206946702,2.060891366965679,2.334394414253274,2.326447510132804,2.3671932437365415,1.9751943219529782,2.39413549433034,2.7253831450087773,2.5077450432259765,2.2528470470571866,2.303972122091563,2.2726242972843678,2.361458364009362,2.409326773041034,2.3492036206607456,2.261282380244921,2.3050082430461742,2.2140337424742906,2.3393756339031544,2.251296966607629,2.4797506139736014,2.3751244412093393,2.264728442134587,2.5540282325942525,2.5731684633222662,2.5428183013195578,2.580592817277661
2.4124496937853386,2.4179440316103262,1.9000269923399145,2.1774152508177957,2.284291527291926,1.944555899062157,2.229208380140847,2.024270790085984,2.611427928249495,2.394785801399018,2.158353780606336,2.210559364604407,2.5589393464073518,2.394237285001572,2.28240748723725,2.283970498066532,2.140532300222253,2.2759641913223123,2.4406289788626867,2.209317505260907,2.4522700840671736,2.203189355931362,2.1607277462948664,2.008064338620674,2.7211801041139134,2.517787442738308,2.325285112492959,2.2443971666106064,2.459839399717489,2.524526577497741,2.58474914950474,2.700038693152473
2.613409298300671,2.6264473338899132,2.4214292517676843,2.404252770982029,2.6116184979343213,2.4277787328250966,2.186830580988829,1.9827598815971852,1.9389709889792262,2.2811220547605515,2.265107760246587,2.3663868612223125,2.048169347383543,2.298563203668927,2.567644457846401,2.5623463425417152,2.3280148067316677,2.5954471309926594,2.194289094291373,2.533292149562656,2.1220524671664576,2.472774587493579,2.1171834292430667,1.8615848839544018,2.4304930200175043,2.6432555591610916,2.715632618719346,2.2764736261942677,2.682086274844582,2.667822633539108,2.4171946446957024,2.490823155294958
2.4347464834164163,2.4153099194223704,2.073729992517729,2.337922418371134,2.653380349659101,2.149338244919084,2.272225215489441,1.895141650366932,2.4159859298168747,2.1369347618909407,2.337647555644756,2.04976984817481,2.2763566049633637,2.7160074981009164,2.6499164704516844,2.675433369561713,2.503931666759011,2.3265511071351686,2.4669945764376897,2.5351363415925414,2.5673068781346906,2.021551172962668,2.4142915408010164,2.3510964427029286,2.6040175239707883,2.6544530717832,2.3539603473825252,2.3939522701731732,2.2183959820352848,2.2149458278348555,2.2742011129033317,2.593907837312903
2.0487074892303148,2.013177840650612,2.3234817967216896,2.376674641177162,1.9402769248614449,2.558773511902973,2.0542827379691175,2.0190802291592944,2.0156312243743035,1.6369624346174991,2.017653845777194,2.242286454347311,2.1171987545939284,2.603141664875983,2.1358293447247116,2.142769300531655,2.2566210304001357,2.2712359017943187,2.4519431377905008,2.1457535743920895,2.142491349781577,2.4688478546543506,2.127277783444363,2.303971129712173,2.0064834079633336,2.1848239369935514,2.303778747719786,2.1128136776504993,2.078120287530891,2.0730153407209597,2.411439726812039,2.1177549892362317
2.78231493954328,2.767287546749289,2.311462933830998,2.548100442103848,2.5638821523963498,2.211867849259331,1.8540305324747384,1.920113728863571,2.3595285695681496,2.1701041735410507,2.681671262960293,2.596418743065619,2.5772024110513834,2.4484183209631145,2.5516635818648536,2.5835326815684914,2.628100841765862,2.413598453713555,2.3725221576404736,2.418455851376486,2.522083044810266,2.2882867875961126,2.3279157855648425,2.168058343724488,2.1007704551237643,2.8611979779652454,2.5259723733545476,2.183467085919365,2.5355632533978127,2.5325882489119405,2.7488061781761934,2.7721038154202935
2.337883984091119,2.298895417666706,2.3127753289748982,2.3031509181371406,2.154126188331836,2.5705967421489655,1.9315606884748493,1.9143914557552808,1.9910693308448315,2.1830364493486543,2.335094015018696,2.310355411749764,1.879774403781526,2.6369217462539165,2.1642918151482817,2.1617677158937676,2.117561068526945,2.3031101679932102,2.1077192842555412,2.4906801164949277,2.328146151510233,1.6861936600308463,2.0322084642059886,1.9172046524851676,2.2048922847775705,2.3627666729539367,2.3194440923564605,1.712371968688945,2.041742501790351,2.026079871268606,2.59010347694951,2.1046696692042124
2.572738905670825,2.5925379904759924,1.9908149687979004,2.1540180126935673,2.026916565972437,1.9623327069606449,2.2381454497692763,1.6261321844705376,2.289035080657786,1.9400698848399849,2.631013949410115,2.1868281969210437,2.35888527938638,2.10456615359044,2.4359456633830545,2.4116681305692587,2.287190873145377,2.28084040368703,2.1672500040432263,2.2440006916379045,1.8052568242027838,2.4181061071639625,1.811998583333472,2.0939544247666686,1.7353465932454044,1.7680673104323308,2.099740744997151,2.163757135353938,2.4774273732374845,2.4938781702210657,2.4658940316907434,2.2507508582327898
2.358883920338393,2.382949648808416,1.9159470646914487,2.0704113835700704,1.9402428392166282,1.6165518696778862,2.037893199381409,2.1245300266914366,2.090223366977555,2.510404051442264,2.6441814907620738,2.5165204432694144,1.8501051954031493,2.4828432983320594,2.0853999901265783,2.0362891499893707,1.7143707470925478,1.909638106255012,1.9714184845174654,2.4731890344490446,2.491509966889034,2.0591669247730398,2.2520893631104437,2.236780899462832,1.819799010174179,2.3538059251429795,2.319368791535257,2.1395472729385077,2.4730554614754974,2.4790171452788554,2.5905997305951747,2.3943345915530876
2.404931358104861,2.386942516205049,2.124222964380132,2.105112723126097,2.376966120232439,1.7029761103177958,1.8167133289706001,1.9250708383878636,2.3107497341200633,2.1805261092334622,2.168881344656098,2.208282545964414,2.055432665966886,2.2896462148602574,2.1928527616031697,2.206380940156708,2.1428944025584014,2.1194184259803155,2.2715853794813694,1.9909344051102285,1.926922662139389,2.270606744185447,2.092338389804077,2.2504570994555846,1.9780268530865517,2.336103423541761,2.125797875002202,2.164061943624283,2.249388407878949,2.236900958987073,2.498772421617125,2.2386405386272346
