Fp1,AF3,F7,F3,FC1,FC5,T7,C3,CP1,CP5,P7,P3,Pz,PO3,O1,Oz,O2,PO4,P4,P8,CP6,CP2,C4,T8,FC6,FC2,F4,F8,AF4,Fp2,Fz,Cz
2.195834498444645,2.085666078940164,2.146489488895903,2.0350206192120472,2.1656435273545385,2.0824396186266365,2.2445618600615256,2.2177175679207632,2.6314815901889856,2.43281799269162,2.5530687167870174,2.512705686638301,2.3931516355520897,2.147484119687243,2.096346884926489,2.1536785264608964,2.0819451671213067,2.0390981516252555,2.179828238680637,2.3457173020140805,2.0407507765749853,2.6700248627506937,2.0479885379387133,1.917103206601246,2.2200487355955913,2.5990111748640783,2.2082764945442324,2.1955774074993912,2.128285571191471,2.1517549418625137,2.5154187465699414,2.2394228242550143
2.291114943789382,2.2924820471852074,2.577554727177376,2.2959024547285884,2.0112479184624585,2.3066059217903936,2.37438507089375,2.0537532748691,2.270303003698691,2.031943153200582,2.2634200475130495,2.1770586880681386,2.8645372316417808,2.7679446137392523,2.3682695712494657,2.727231145273765,2.8454659864817393,2.862896458045633,2.5388454110421437,2.283107241248118,2.1007272268536767,2.249934119249777,2.2977211809772555,2.009071765539543,2.1756426569863914,2.2959664758779534,2.4077816555464553,2.2473937030439264,2.8002167389161143,2.8121429432791722,2.7119906729912695,2.296487793648735
2.653982335485294,2.61920094858796,2.4283744151585123,2.414895319675142,1.7942521163450713,1.9918308570005248,2.5350208317808955,1.9856706123162378,2.228294453985717,2.416736958081374,2.5425548707698553,2.432155777224153,2.4000145200445315,1.982067769311147,2.2757817674591725,2.3542795430301977,2.139085863209887,1.6928484338901484,2.2913061754373065,2.0090555948472777,2.1830291211954567,2.2492735760932274,2.174550774951128,2.1852817945118908,1.9872273082500203,2.2000828167630417,2.2243843501693354,2.5219467507438873,2.4897212211642685,2.5058549484843082,2.7241428476186442,2.025967034020542
2.6661381472175565,2.5080302621607413,2.2524685379032436,2.414285896408311,2.1682054731867644,2.2910779389169544,2.271994540362765,2.3466364167997322,2.1221924662626255,2.114258247007524,2.307633498281043,2.0787089632241624,2.1588459285118633,2.1016622952573445,2.1105477712776985,2.2330249370385897,2.201879721930874,2.0889932229103145,2.2309429190557375,2.3303348368011667,2.133074642566066,2.4392638613244984,1.8508790125546652,2.000855508105803,2.067053763151331,2.425970415575863,2.3136239909361827,2.3724153017674614,2.514573643841427,2.553478046740275,2.663886279448639,2.373895194419503
2.21660320977996,2.1103966237178864,2.511726187339419,2.0417334044380437,2.044121455587067,2.349557202795003,1.6097618936965294,2.202453027937882,2.212649969609619,2.2419814220631977,2.331581951938874,2.250297399616515,2.224103250387188,2.316370897326119,2.025112322817862,2.1962516941976,2.2135185232438785,2.160041623557687,1.7893294546538898,1.9169131898227612,2.1332349892283795,2.126986264981037,2.0453644818899104,2.0800351447275776,2.1259553562148303,2.226859137914583,2.136977818308175,2.0796737403265975,2.31475972542948,2.3224392260785307,2.169149220554588,2.243835351283393
2.3860565603926696,2.3957813658632348,2.2134840458193095,2.3803111379411304,2.049095787286394,1.8398425964318763,2.1512384511194016,2.0363969816194256,2.0971474267660923,2.24442049869262,1.8601031415797493,2.352225099192146,2.4480239083365256,2.4131869956257286,1.8419993504780838,1.9712351669028954,2.03409664207707,2.0867629306923052,2.0580303137687452,1.6704022523348758,2.025361287491407,2.0535502707843074,1.9371981655126342,1.9429517420809033,1.873141153762714,2.1095091280237384,2.235807859644506,2.202231383131405,2.3793518414186954,2.3568540234434474,2.297660216755801,1.9302604596595123
2.3011872013272328,2.363422629734336,2.182209380543258,2.3743069764516003,1.8274195200056667,2.0927647395248767,2.0305481813878608,1.9900215662158884,1.9690436316691589,2.1024879277180943,2.0775846185452873,2.01392306853117,2.2404789663185443,2.1703249051947195,1.7482625722338232,1.9507764610153524,2.0002859687586336,1.8878167160595498,2.2013802135181297,2.204144198257737,1.8833611163564066,2.225916277208703,2.108678788461743,1.9541518092638503,2.243536949056754,2.2115497300117233,2.0851131979560633,2.097380353911163,2.2341405694206364,2.2594371460066025,2.265807250528603,2.071856198301689
2.194514606796245,2.159785367902429,2.524336272016959,2.237578964800984,2.4241370533800195,2.7252963465597344,2.121346917750264,2.39845737276676,2.308015969590402,2.2947336248616024,2.164505602692884,2.495349651208569,2.0418402883853126,2.5632749133033044,2.2401277836938345,2.3762212008966306,2.5015040767934202,2.288551829929897,2.53655821543401,2.4417988007390057,2.423993377854878,2.2764541942959955,2.217826697814491,2.031967896826757,2.477059918194018,2.2858873238223247,2.3915922814265564,2.1843424633244988,2.2018501552368144,2.2184791059843496,2.558825295012634,2.2329313084875704
1.8952173276274127,1.9000126174862246,2.017052864342571,1.9247785405656033,2.2128617332261307,1.8499793928865438,1.9305676194486419,2.0657561497263264,2.1672502187857434,2.0637573967602574,2.0154494696113874,2.127452848841103,2.138512393303315,2.2157142960996783,1.9456434096500645,2.03560822160626,2.5604404067317565,2.1318327872518346,2.239703288375368,2.3274458046291757,2.194423625935059,2.166238660015381,1.8818303884711811,2.0596812400631954,2.020154207818389,2.307570292245677,2.195475572690685,2.035998201495995,2.314466688619837,2.334773374586686,2.2255080705569155,2.031866124858771
2.5189669341419334,2.4568408648737745,2.1254525777880224,2.3156401241141884,2.054914872498914,1.9783555191661368,2.461212195896831,1.7815610353181712,1.9183834341505068,2.1308854502129035,2.2568056263744816,2.31175186768677,2.3283608301644496,2.2641606955392484,1.7792066817487797,1.8643468484192425,2.2347885320583654,2.2004539949445188,2.1984112884522538,2.0462669436184227,1.9572053241678604,2.2689050913575373,1.9932755389199757,1.919103701770324,1.9924359370356792,2.2886780560272357,2.07812087630619,2.1529174363803802,2.6733165812985953,2.6674337914156947,2.3252120959894533,2.081664207965093
2.098909616709436,2.034653564002231,2.4487432006112844,2.0218479845696975,2.1526532783884087,2.083784594236564,2.2281687546550066,2.0254495152003447,2.482310442945238,2.0592931121023006,2.1205437806808316,2.3011819374801155,2.7985368029373063,2.2054251360805264,2.1864059485873177,2.1132711876017467,2.3208651034459282,2.39116670305068,2.348378394384524,2.205416347001023,2.170447888616461,2.2427257409706707,2.0070132161857224,2.071455335284699,1.9833251963803014,2.203105018309259,2.2053756581160724,2.074485685123363,2.818374426964322,2.830379879271042,2.595789623787242,2.141915659030349
2.071607466056493,2.058709237748696,2.242620745864805,2.0475668712697903,1.9738583587956027,2.0361311646170908,2.00164465929939,2.0925537002505994,2.0485692454456683,2.1075423713736505,2.0860960652660503,2.206421848723919,1.772357150758611,2.1369331580032767,1.9202561099495035,2.169036016454968,1.9211823536647816,1.9326954696226875,1.9624720294963278,2.165486475571201,2.445229170334859,1.8300621957266694,1.9810904080613108,2.0436699825353877,2.2565823171688697,1.9110426939243768,2.3058837800714,2.100763935407822,2.3484602851519276,2.345109522477373,2.550248838473285,1.964903712472017
2.4495079492120517,2.394834319022723,2.0393171810520165,2.4507353580824995,2.1676910478590385,1.9178009787015426,2.138198363627373,1.974646414247725,1.9203129290594922,1.846418200955732,2.046978916093675,2.0011332879835044,2.2279482292584136,1.902383862613766,2.0771816069309255,1.9204992046966958,2.0470137083447697,1.7259813391278283,1.8100181522033667,1.9936047118074824,1.899124872384426,2.179803599086268,1.582954671543718,2.131445077697285,2.187590951543752,2.1257343971612306,1.9886071210006264,2.2930261469655697,2.0967870516947813,2.0835082424945317,2.243785219230027,1.986602415135404
2.378326498728539,2.3846479218641794,2.228726391944538,2.286867648028804,1.99457593444246,1.8135687793651873,2.1395451163037915,2.096364021472107,2.344180612816885,2.1577849224543364,1.8979313640870237,2.314755263668266,2.6174099468221534,2.218411277195426,2.1392307746021753,2.2351722857032392,2.250827793193477,2.117624023196697,2.368025555855507,2.2856915498512023,2.0940912055646788,2.154260721501204,2.109804193052507,1.9232103309786617,2.1577281797670675,2.150138647477322,2.288267067528707,2.438047747490559,2.176824830364452,2.2635061320502565,2.1492179824061837,2.408949050914572
2.5468603017743603,2.451924280987072,2.217960801053459,2.5350987097472375,1.991312778080275,2.22800649584617,2.32695408005156,2.1517933785705146,2.218695993626271,1.9642786080239742,2.0661385675081196,2.059863993795366,2.324800483913369,1.9920486347375066,1.7044384836438429,1.927083931648627,2.294845738888463,2.103366276006636,2.751368079648053,2.10556241276051,1.8919627072847174,2.509976694262992,1.9273879720551395,1.7874403843174205,2.2544070875287985,2.5123058167693757,2.3585552797090443,2.334039114090464,2.6603589243574834,2.6949453816576643,2.7069972898631427,2.252234820820877
2.551577074176943,2.467366483787679,2.524448673189607,2.441806764031378,1.7662356334544063,2.4063970943620365,2.3214856031393385,2.301773618574943,2.2500086038493836,2.1603722387515503,2.3174211693525892,2.3822143358069625,2.439785195176829,2.449163695558359,2.1819607122549294,2.304205589214063,2.415526769558839,2.0693989830110353,2.1416140565743285,2.148077601232843,1.8034269764890547,2.5491150104874416,2.307899767413232,1.9240364644564882,2.2305866546936923,2.7229712733190903,2.3007992532527215,2.1479175539150193,2.3508288876791097,2.363407315750886,2.432585203192031,1.9808906146940726
2.2116976358844638,2.2309899359973437,2.4342678384493515,2.2493044078936464,1.9075080584496347,2.390347258314327,2.0859477037877245,2.213178063722537,2.006617545229523,2.22948114581817,2.277009507121288,2.459772140029644,2.8471103441629277,2.1392284436082427,2.032959116329196,2.2251040571076874,2.362608230275195,2.297325682760143,2.2239255933814523,2.0892419775005573,2.4158808915779697,2.516535464705487,2.274105534832506,2.247050049988673,2.2385529860434947,2.4230216618134732,2.2458622183693637,2.1831357513606062,2.6241110094129447,2.638048545594115,2.5871712178473394,1.9851497862974945
2.293710049736055,2.3304841894187747,1.9777116073067014,2.2999733409749394,2.0459776794907336,1.9512737385357626,1.6417959405691709,2.229538433366075,2.0595252302110927,1.610420146760065,1.7434878988401836,2.1498910100059594,2.195654587107894,2.0117743381661835,1.764966722027825,2.0662786999081537,2.1162885174463395,2.0991587031605166,2.2686692502135237,1.6175815201182346,1.9121373772243886,2.1397084790422958,1.9695682312217335,2.0069333493979777,2.020050053508,2.07338876888708,2.0294717762969983,2.198514980233245,2.2350419879030037,2.267357138495287,2.274504054815276,1.9911085779125892
2.373282027269256,2.4072349814952156,2.0000588438040916,2.421165235365154,2.5661790022625315,2.0704253576384044,2.4249962436408437,2.294908649905446,2.2724953243576294,2.2561585772490464,2.483709652152554,2.340208538802398,2.3487457105811766,2.203918321789186,1.9930517081926642,1.8928779364556014,2.329331424645326,2.672971738631611,2.174225475167162,2.5033341119995858,2.342540245225712,2.791527710663224,2.3266890562076714,1.9022518603014869,2.5537490351795586,2.7975917641134593,2.3768338706839898,2.750235616882988,2.413862661507637,2.3628876827283944,2.4913211193438616,2.6209772047574624
1.984638538130962,1.9841249751065326,2.096099940480359,1.9683563333602194,2.256634832148258,2.099451253184447,1.9678283676137587,2.156470403546394,2.210004346895829,2.1553450394356086,2.274503985803096,2.26398202976054,2.2942160708885093,2.3193033501381395,2.2274064736188413,2.373456943882574,2.34209654774613,2.187029691201405,2.184314974821147,2.108651271120103,1.9983950574797904,2.026556780842859,1.8300454620289985,2.117665029460602,2.0702338356757406,2.1448863243614564,2.6102576924011105,2.1856783155268675,2.8213199856248004,2.8229286580629256,2.624098043584777,1.9500218483845868
1.9808246807104117,1.9685488121157486,2.1365191245608086,1.9414695220579974,2.0229632344383965,2.571529512873112,2.093371728176942,2.102789020701712,2.425173459782436,2.222600147327955,1.9313065959410285,2.2558496368092005,2.64131228092292,2.230070767288645,1.8687228391626225,1.9327545074566173,2.2172082621006033,2.362358781737822,2.125171798771387,2.3727861511463115,2.2944063950559923,2.857644494911037,2.3035072624283917,1.9299177415348903,1.9258418947794682,2.9199699923500577,2.1814482354544764,2.386247314147814,2.3552920367817394,2.356487943749078,2.1526661817786747,3.030441761110701
