Fp1,AF3,F7,F3,FC1,FC5,T7,C3,CP1,CP5,P7,P3,Pz,PO3,O1,Oz,O2,PO4,P4,P8,CP6,CP2,C4,T8,FC6,FC2,F4,F8,AF4,Fp2,Fz,Cz
2.439685282439984,2.506681790083478,2.10064835624857,2.053813018889926,1.9944113690925378,2.198629701495668,2.1925584308081065,2.0628744542462427,2.129569999818482,2.0127943338054974,1.9679875785076262,2.3393935121487717,2.166953095126919,2.4545270476466716,2.1238107682573446,2.3060589950473735,2.1959647839362852,2.087928172315068,2.0032789822587236,2.1829068127019164,2.15516423946709,2.1133666691559445,2.463751561237662,1.889510601841723,1.9442391363240004,2.4166923498309827,2.2154531457068907,2.0758732552910724,2.2339049743095156,2.422040802129948,2.3309431128502722,2.204191500022337
2.0398759999018363,1.88512545257527,1.943675208740066,1.9355725015885916,1.6939229211737101,2.0348351328741736,1.9227099327777193,2.1054616291710455,1.7280842644485406,2.1799496414621378,2.1565353792355926,2.3057515864756564,2.019069235462003,2.337420193869881,2.136642084687182,1.8270772305046235,2.2667565468852287,2.064279088773877,1.935623541821108,2.2205162032542227,2.114902971296546,2.1115675613984277,2.0389745917642514,1.4212761758925756,1.903140508245364,2.2978779687791095,1.8905672494281918,1.7951577609084697,1.914082498308011,2.035993153191011,2.034173807624676,2.3675488898466615
2.125434529127447,2.2556284120654695,2.086571108556089,1.760186317829804,1.9904941209097602,2.0699554900331525,2.076744526116479,1.8427440541349647,2.0032683584245805,2.1529322370077875,2.1002348930703993,2.4143742143663367,1.8233208694527867,2.1177248496620504,2.329012313544692,2.150529010989167,2.080876899681497,1.8355813520975284,1.8599303414357715,1.9898319545154375,2.198668911545318,2.013847236361252,2.3575040835914667,1.9506374706361294,2.2206880714130652,1.9193872926557358,2.1526862312351436,1.9338668716965937,2.146393495560742,2.15935139269998,2.2730037311136035,2.349546537668525
2.579536684696087,2.6568488601584117,2.1903932075344836,2.0335031096348204,2.02067387242972,2.25329097497491,1.881264355906846,2.348378471289231,2.942578252498903,2.166283454017102,2.302462259633863,2.676258231189702,2.7696949007193044,2.4215829734320877,2.268246253029261,2.2159923767868155,2.2162388244886526,2.2129745097282685,2.4779066893014976,1.8949390904170933,2.0037683215553432,2.3384386943059883,2.1502855377937795,1.8519709846024635,2.3685353566900322,2.3715363906851064,2.3667032577954004,2.0967102811903557,2.3543328067962883,2.6047453568650702,2.3665013216173754,2.1414280203194753
2.138632451178742,2.0816453279391145,1.4027535507775972,1.5218835817956713,2.2944896604236664,1.6935390262075598,1.4155345784264166,2.1633944570494648,1.9587440176085567,1.9400998459172898,1.9549295429651892,2.1955856572349033,2.2538336644586017,1.886954476136548,1.9599282678311016,2.094368853384275,1.6825908924831727,2.1827878894041053,2.151471557070778,2.0980051261045203,2.2109051731062643,2.2391231598338814,2.3246944949495747,1.9479764571238642,1.875341949640722,2.3110902754976355,2.1510932460365515,1.9762001633374793,2.158542957442213,2.11856064304584,2.193525146602739,2.4516575016902644
2.299257761544464,2.5202176155584373,2.248237979290642,2.0999322223836585,2.0442729170129725,2.061814085245708,2.4976761312694755,2.047761377979888,2.576564403228874,2.867812029105132,2.764511577063199,2.889620355792626,2.6516188513632817,2.629142831772642,2.6830316050908265,2.2051241628777585,2.0694690119997983,2.4269882360245094,2.742173717980615,2.24126510238004,2.1784047723882294,2.19423631134968,2.3152037594789006,1.9563600263585663,2.1347524995174783,2.4224708784099507,2.205266210569013,2.098722801186341,2.6898987743572578,2.353342431003062,2.2827251747111457,2.4407922304677854
2.7890256870058523,2.848712698727219,2.4855612150849824,2.4112060191649913,2.5369497175178233,2.3053170468625392,2.616089666027261,2.109575590215484,1.9736345613927482,2.276188015060597,2.5953084131821798,2.3336317886029754,2.3452171811178975,2.2226889789197823,2.310521342706787,2.214699504308907,1.9541595073596125,2.693949406151417,2.4202639572671654,2.2896741564767313,2.29818117471494,2.298040110119651,2.4378501877386034,1.9564199612163102,1.9795280827127162,2.2194150095009633,2.2598055082032906,2.1697575554286654,2.3377733087271717,2.596894216587471,2.153743010453072,2.2144740357364374
2.129187654606591,1.9558245604778108,1.9161212590564183,1.9791099046593754,2.178661407226222,1.8949953415210585,2.097031800681678,2.014845884220617,2.1480618290843267,2.062812582143986,2.205503870343179,2.24629802493844,1.7691877906980313,2.0674407887375716,2.1245232324209824,1.807694439471779,1.7120800197223764,1.6412989131329276,1.7219512175870608,1.8651035242453435,1.890536895075606,1.8240896378698783,2.104109477703592,1.8163818967752867,1.954782148863725,2.2935384533252328,1.971113218189859,1.9163159335191131,2.0729202278787886,2.066306359310538,2.2935860230592127,1.945084059195779
2.458568719117851,2.4233413951091323,2.179988843616383,2.0580280284213144,2.024918815317168,2.159488898701645,2.2267992066961644,2.198443760804782,2.2003666781587867,2.2092270916290704,2.308841091434347,2.2698095108265224,2.6562653576148407,2.293640463097929,2.0994802929524448,1.9570738768912435,2.0067789349908467,2.790575835917739,2.6971198003360595,2.4302685912759463,2.375942401163451,2.481607453558895,2.152203978573496,1.903837912489242,1.928073542977442,2.089616253769011,2.2416545654752777,1.9224475620030017,2.161647813440437,2.337852773872757,2.391513801418642,2.2093993152292084
2.3122104070972096,2.5446998381643744,1.7791556709947685,1.7801801904818748,1.9066866878410462,1.8315924270830126,1.8496972924885788,1.9981261511893715,2.074377459658875,2.1806968174185846,2.2582027213471245,2.0097356576917935,2.200653803256734,2.002824330910516,2.0334874407417067,2.0152897333799333,1.8511441435978249,2.0487020912267626,2.209239531165441,2.078120439024018,1.9586280842628068,2.0898440800366975,2.085399855786086,2.2181840274668843,2.142064221772985,2.2814090338928406,2.2080289715826065,1.9190162731710614,2.218436973039007,2.2448539277604436,2.216841684871747,2.3001845389791833
2.538357213387507,2.4728927010636728,2.297265999292419,2.024673575608142,2.0029325891884158,2.0109089557873405,2.204405253120272,2.2671743891140665,2.5856844705494364,2.0018354658108546,1.9880051058202264,2.160864612126157,2.0667329729601573,2.407198114048824,2.3330874814821803,2.3424547024643014,2.1525124261511115,2.0304186234464967,2.049500692216445,2.007424592203832,1.869872767243242,1.8237399710012216,2.3060746759422575,2.221642284894061,1.9575290378205386,2.340781608609984,2.0450748608438905,1.7304940343134725,2.0254547305719246,2.3338641943979197,2.197387857315004,2.088668336048872
1.813857933303331,2.2813539523540403,2.7714791609033176,1.9427486757014265,1.9472695983131367,2.6969666312135994,2.7474836185283293,2.3087524523541547,2.3576461189495133,1.7164230165294694,2.003383130076675,1.772477056113563,2.5390355535834535,2.580742241918145,2.1828133438253055,2.152605269072989,2.0807065480264697,2.5463611120056613,2.4070549266491983,2.232208236791323,2.107527758878768,2.4429663158716046,2.2990296868617945,2.4105810493881816,1.3330386648690256,1.8065504763206865,1.6858873141270347,1.4167900707621952,1.7008620068167866,1.8796185973355,1.9521656970240535,2.3342839469245162
2.1097045093809936,1.9468958274349608,1.849203313398427,2.050851262159791,1.9372505737114531,1.8899715707405995,1.6086000934348865,1.9497930043533398,2.2474260080744317,2.2774597745985266,2.188390621885201,2.257472520525648,2.3175616920874296,2.2690935157276826,2.25047156856604,2.4978941685638905,2.2815677676655577,2.2929033024812817,2.3836899804251312,2.3014599629048282,2.2151370153617735,2.185640132675349,2.248927259115049,1.961592117455146,2.205625319050129,2.0790300235592927,1.9955285375032925,2.1644444724924985,2.0446428930644793,2.1286267374002263,1.888307681176979,2.1719743501337763
2.11393293460424,2.5336534544976095,2.373222663152095,2.125259989214904,2.057746503004564,2.5694297724274446,2.6965458913989058,2.4854106893451258,2.121523433015089,2.3072019556109415,2.322008615051366,2.615068694479209,2.160025281722505,2.1464202555611784,2.650094361744141,2.005818614215476,2.0617820121011374,2.2307814411360747,2.146059219786448,2.3902631770602616,2.389250353192935,2.248485832597207,2.156412691004005,2.3143574728094927,2.319172407122053,2.7784478873831704,2.4605133879464822,2.7320638098442864,2.402031948651787,2.0864053256428794,2.5672252078988476,2.560944898616452
1.9229632965965673,2.0407523328843316,2.2295310856817716,1.8881320520819673,1.8811130739128938,2.206340317495087,2.53768810778008,2.034645983677315,2.3376879281513534,2.4382669712788925,2.190021015223649,1.9716228401172842,2.248318677695866,1.9851808945866274,2.091327273858223,1.9595773931013254,1.853383972169009,2.3033251516585516,2.2787159574709457,2.158432877124957,2.1212042003938456,2.161400945569751,2.349356524296095,1.9367212300630092,2.054318931523548,2.0394874014595663,2.0361195063310307,1.7597074425518595,2.039959583008051,1.9478389235378604,2.03718719657316,2.2753978676191515
2.2417897645636264,2.2725545734955834,2.3522473885492503,2.347409383345293,1.996405845647859,2.1754236323149505,2.210270955867896,1.937124148166535,2.392431609787885,2.364896254661479,2.3842460963978493,2.274067803628757,2.485529651652304,2.250494014085645,2.1441424510475087,2.554206074175393,2.3804663910417347,2.193924775935702,2.2481171071149766,2.112996736135943,2.155813051532967,2.712614215413981,2.1169782935892028,2.2226175629665663,1.9394782888596813,1.8221414253376191,2.12354963453271,2.0707096499017683,2.112052942466513,2.1854917193149603,2.095369082112179,2.3039881939155085
2.432704331894463,2.2318538385780315,2.3339740174588015,2.110720056156428,2.031300548025572,2.0967782800382633,2.37682260053142,1.9959945293946937,2.0801785796539476,2.3052551137859654,2.261099665782051,2.2111012662293748,2.183443454568218,2.269180957640385,2.3333032277214687,2.3513541819179125,2.242268521624854,2.136199753996515,2.166641076228777,2.254448548799351,2.238690796170078,2.047420010350786,2.0808223239029777,2.26848448365973,2.3657059678375427,2.2692200336245634,2.0972161638110007,2.2123301291229662,2.328596738901167,2.408004345961214,2.30392703664742,2.3457756297749346
