Fp1,AF3,F7,F3,FC1,FC5,T7,C3,CP1,CP5,P7,P3,Pz,PO3,O1,Oz,O2,PO4,P4,P8,CP6,CP2,C4,T8,FC6,FC2,F4,F8,AF4,Fp2,Fz,Cz
0.9828250535521635,0.9811654419265133,0.945789232817428,0.9886636540341328,0.9662292652071823,0.9688154180875904,0.9549684567520033,0.9737498183397596,0.9706402064239857,0.981200565410073,0.9745777877606708,0.9833883473128519,0.9787515570870999,0.988428043464023,0.9889687896225802,0.9895540311240593,0.9691001400508744,0.9853268502356529,0.9791979447552209,0.9853182863239504,0.9684787345657735,0.9603267232354682,0.958803163536475,0.9785128224880181,0.979378852505519,0.981970227203669,0.9929158472705295,0.9756198594642957,0.9893450254931968,0.9783273807568086,0.990332955951372,0.9897488440753284
0.9855792257326803,0.9851677883597572,0.9774429987208335,0.9818714377273343,0.9751485971545601,0.98088610624705,0.9766558266831967,0.9811482717844684,0.9839190199588997,0.9863200653178894,0.980035685326153,0.9922587441599084,0.9868274892632635,0.9888380199980169,0.9718774883130492,0.9711238828167802,0.970657328830635,0.9872312366814386,0.9860356802568001,0.9804251251496869,0.9768057588352818,0.9859245985861239,0.9723902258940961,0.9930720023215236,0.9572033362498438,0.9456257589951104,0.980943819353359,0.9661203374488747,0.9741082047043454,0.9730879155945605,0.9759212897984595,0.9776964625204602
0.9918714816099304,0.9918912579281453,0.9648587537425793,0.9652585708103241,0.9807793384989961,0.9841397698019716,0.9739688973027397,0.9786436041037523,0.9883167137095182,0.9698945499169302,0.9810713443830652,0.9909187838039453,0.9954150147698413,0.9945030596538257,0.9819941509275036,0.9847756185118071,0.9910851290622908,0.9933790311946931,0.9908428092352157,0.9807724095758961,0.9825800477479089,0.9897745332581678,0.9823823421034943,0.9785531478982581,0.9841738037714064,0.9821711004671483,0.9861850564394485,0.9744409140330889,0.9850423658579418,0.9862856209373256,0.9633692146398711,0.9846525534157022
0.9779487221400135,0.9768305947607169,0.977822979189928,0.9862475739313531,0.9835379441647105,0.983135648700379,0.9771451204183204,0.9793183967567237,0.9765377463812096,0.9847977803030227,0.9798330889559128,0.9791089481269182,0.9695885208415015,0.9829446307868652,0.9726585676063398,0.9736425849613493,0.9911160922556987,0.9854615838526176,0.9682639569455727,0.9875611667768212,0.9829429948909963,0.9683809515485184,0.9871127553218976,0.9858852557154738,0.9707891554006401,0.9813622781541306,0.980872876831842,0.9606038317337464,0.9842411636962471,0.9839777336580059,0.9867417124914187,0.9827694821345802
0.9889710249324236,0.9889844572730031,0.9808627892126656,0.978311642382261,0.980222088517311,0.9855427255741246,0.983048836640201,0.9913023160038245,0.979668953766972,0.9833189215361123,0.9782545709499113,0.9878299331034458,0.9797147340502446,0.9721583623594454,0.9895537724650328,0.9891708141179086,0.98182599327874,0.9733603594442061,0.953308831288618,0.9794840845988072,0.9728897315538545,0.941022346120904,0.9772990218221769,0.9658318924316144,0.9744472624236458,0.9895624693023023,0.9849708482352852,0.9864291968745491,0.9761055827837567,0.9756129550382594,0.9636091296980773,0.9892884861181873
0.9852649781080244,0.9868682876969895,0.9823297859123041,0.9711611348753261,0.9866661884861612,0.978912592955647,0.9699939344455932,0.9863015158081725,0.9914294620414847,0.9719604878729949,0.9472552502837712,0.9903128177331304,0.9905884573524447,0.989995957017534,0.9764026134494328,0.9749630725591004,0.9755331103971006,0.9602665520624872,0.981170608886789,0.9718051807115841,0.9845690258996647,0.9820541664346789,0.9901636355226907,0.9780117570724178,0.9874885577567779,0.9860516528227012,0.980946605662085,0.9789564248765654,0.9854221633738645,0.9883368571770402,0.9817394509196349,0.9854953000519702
0.9885502864655378,0.9887883802850181,0.9900030316889431,0.9867139928952465,0.9873436259632935,0.9891224820676128,0.9757986355668622,0.9744633180349849,0.9879708950709949,0.9650446365967692,0.9730263723670054,0.9804443540473724,0.9781041623108805,0.9905369329052311,0.9858260605164132,0.9859401087900858,0.9838854460713607,0.9742969409085668,0.989123679020398,0.9808697971990984,0.975616284783185,0.9862222825459793,0.9822609514545663,0.9815406568954248,0.9866995918335733,0.9767664469178651,0.9862704879630809,0.9750973116448384,0.9870431476389293,0.9900199853336283,0.9895742094770208,0.988357926543103
0.9865712124277911,0.9842337350664059,0.9682664202788366,0.9849595357512282,0.9715603431000934,0.9895765060820235,0.9598448213181136,0.9882891783333702,0.9853247747973163,0.9823204291721342,0.9521884852003942,0.984651955252314,0.9851820350336528,0.9840764415899546,0.9868876898563783,0.9860447269401147,0.9828083337149723,0.9495208498489355,0.9730778352234032,0.9559940225340653,0.9627190191643403,0.9840025715681326,0.9865310508769631,0.9838445230278801,0.9859922674943812,0.9878060933678205,0.9807665645755667,0.9700030522245549,0.9863791393503231,0.9843461076194837,0.983729781228778,0.9887445594831289
0.9823180831929728,0.973764553688172,0.9879141722635465,0.9899280170441597,0.9912309573886111,0.9660566778529783,0.9357703631107182,0.9811644238601301,0.9687699341107449,0.9547730486565198,0.9752809516966882,0.9750290743322315,0.985382659940708,0.9889822501243106,0.9836725555534473,0.9837342536077089,0.9836808563207802,0.9877515548746663,0.9848633120466938,0.9703071651712885,0.9835669140219641,0.9816496116055003,0.982263945955832,0.9886332577338525,0.9573477756435159,0.982577605512058,0.9851660604038059,0.9794761858110409,0.9849241954269915,0.9858286841329508,0.9783533425861057,0.9887233242832083
0.988477514586393,0.9891799756186717,0.9822011508924364,0.9619321071512903,0.9891064232571383,0.9886287231129721,0.9796415127031852,0.9686539073737179,0.980279470637935,0.9735823203512606,0.9853071249630152,0.9889878651640082,0.9871385748634912,0.9901858035327693,0.9592694973093288,0.9594328545671863,0.9720212733338228,0.9831679683006112,0.986005075381627,0.9878166856262238,0.9855368843656657,0.9848164734696112,0.9865902494784798,0.9856111970749607,0.97377850910927,0.9814223463969027,0.9899255721544702,0.9889679077000202,0.9843182053853133,0.9840942127683082,0.988683265839892,0.9837419086816735
0.968418463560125,0.9787699316275648,0.9687811369510009,0.9658994715416176,0.9888878988583739,0.9832638921575506,0.9740274476123933,0.988222093642293,0.9874444512239401,0.986260584637214,0.9715487607495094,0.9736517205907952,0.9803941022854813,0.9880331039008359,0.9870271331094043,0.9892222798986625,0.9819193628513913,0.9709110445771143,0.9797542858579501,0.9867929347675435,0.9819737143173832,0.9824724019978105,0.9660389332424176,0.9770839449516824,0.9886971545169194,0.9884405329465547,0.9869481588925786,0.9867615719593547,0.9503060405320264,0.9528870886596144,0.9799832025535207,0.9891506684215557
0.9846252257553758,0.9836858990072285,0.9675947174842492,0.9838608214604605,0.9778602602378507,0.986267357594168,0.9268943107039539,0.9873971949548161,0.9792145248859242,0.9853347455400169,0.9814532419125415,0.9857425584272477,0.9611859024919719,0.9773046069493795,0.9809230436407934,0.9810962998420681,0.9881095689965884,0.9847629439817164,0.9918773306325886,0.9749598558747679,0.9900211664068692,0.9386231432587938,0.9902725773603681,0.9699080627727731,0.9935889889926609,0.9769217155015621,0.983815267717105,0.9835519300528788,0.9746024242214117,0.974551365214504,0.9696626745176327,0.9765112545020187
0.9828048891053098,0.9817756145536652,0.9693872030506633,0.9857141389671953,0.9855071687432958,0.9705985825830292,0.9755807405397267,0.9790703286520247,0.9725869374584993,0.9915656785310075,0.9789676694645543,0.9692157471728664,0.9871780305087241,0.9822889884980079,0.9788807671648304,0.9838339515753673,0.9815897418923414,0.9745174808735697,0.9752922517313886,0.9844021455114704,0.9868598368305402,0.9875551199037407,0.9869767498213835,0.9743413688610302,0.9856943081856293,0.9896159881454551,0.9906310519357893,0.9888353343456912,0.9883920283973747,0.9872778107293335,0.9848528291310621,0.9920434654980458
0.9825843965358831,0.9822617560142157,0.9755168242964175,0.9910086937744879,0.9913972125897019,0.9717502919073325,0.973396970818646,0.9826440047055681,0.9817164693367108,0.9848430017031466,0.980369838982639,0.9694836479051779,0.9892545295989505,0.9880148490410763,0.983981701029875,0.9846129697020873,0.9852382102925017,0.9909737037057674,0.9806958325950871,0.9834025080476613,0.9902998733666907,0.9764050753986597,0.9901385354307429,0.9823938058705062,0.993530327121857,0.9771203628191506,0.9813165745335932,0.9834399252647548,0.9896731589441833,0.9920967410063588,0.9903863788474945,0.9847657074077558
0.9892460662834395,0.9875498466374804,0.9866259167679752,0.9862872364526337,0.987669680579287,0.9904069868368914,0.9708040902717124,0.9795643477804414,0.9809799618842854,0.9702863572995607,0.9850004498883929,0.9728143845853757,0.9880937487619755,0.9870438155279128,0.989372493637342,0.989151025125973,0.9908337598294236,0.9875738506544994,0.950270208269816,0.982530890911327,0.9692166576249097,0.9732628250986255,0.9340211107835766,0.9829482144532271,0.9925566670797884,0.9902677070087074,0.9787229521653962,0.9872578089787328,0.9840083686752014,0.9825699123710914,0.9873580934061834,0.9660754722315538
0.9864559243171972,0.986534942001521,0.984078744366312,0.9798411186173362,0.972583442161456,0.9747014262537128,0.9806352033205006,0.9554829902110674,0.9814781573752465,0.982619893589137,0.9694816234303087,0.9816151979109387,0.9819762133298457,0.9773787283664941,0.9875044566636383,0.9886038638441487,0.9851638813454778,0.9895429678370269,0.9833227825599724,0.9820696126489189,0.9891733246151411,0.9568631001921412,0.9630346526669714,0.9828860045135298,0.9777098975714615,0.9888141177790966,0.9911615576563817,0.9811802639452538,0.9830409970116032,0.9822192548306865,0.9791951524881637,0.9861939645227575
0.9635026894689801,0.9632956685008524,0.9302750974317212,0.9881200003660725,0.9866778819721687,0.9870118749907452,0.985201146837192,0.9788978592444341,0.9910294223284128,0.9849406042725699,0.9724785496957883,0.992886819011534,0.9908274720695851,0.9755806482529196,0.9897175238511401,0.9892732802088475,0.9897576289711332,0.9928170092476372,0.9882875888831651,0.965610648226781,0.9879204567740683,0.9827067839525447,0.9836259865720478,0.9870876658624591,0.9785911968111547,0.9726581504385485,0.9823281977871785,0.974009377666489,0.9858742216959536,0.985550699869349,0.9680983310866662,0.9705184423615226
0.9906418031544194,0.9906156707615219,0.9859719435525562,0.9694458850227726,0.9771913555457864,0.9762324991136001,0.9855394480100729,0.982192650868375,0.9574507850708613,0.9803386071640662,0.9854020021876299,0.9795369692520346,0.9883874786484586,0.9766321297083989,0.9804658478195354,0.9838458129788533,0.9833275331222948,0.984268931512056,0.981299884185454,0.9813805651467321,0.977833025839639,0.9859082814470702,0.9871545990611944,0.9820534972212805,0.9889766990993661,0.9809214129334825,0.9771466924186806,0.9882285570413398,0.9903986011546082,0.9874133279995841,0.9904741305942186,0.9851266410302839
0.9905998224863161,0.9891330552914002,0.9780164731085538,0.9888573475439265,0.983247190099864,0.9816375216529843,0.9770414701686032,0.984429671969854,0.9866603719583309,0.9902102661831514,0.988059545480849,0.9846162068164872,0.97147325167394,0.9876638624609291,0.9822857364587632,0.9815234562205358,0.9787396498590588,0.9862813787131582,0.9879520842073127,0.9907498009965784,0.9840662796703951,0.9782652744392706,0.9799544658214414,0.9787419100661074,0.9734701134625449,0.9907866828163854,0.9868505688806671,0.9614145757588819,0.9811811601086073,0.9820365390173569,0.9906537992097894,0.9764007994091783
0.9961528111324643,0.9961406221439457,0.9812214847062813,0.9874711830014833,0.9630318649679651,0.9805684782859042,0.9881669487207675,0.9793292780871612,0.9881770371490505,0.9774729716520599,0.9866102705882005,0.978232885911713,0.988250053541728,0.98214883046273,0.9828594181645998,0.9831085138314466,0.9854385210759797,0.9870727567764535,0.9802740260224442,0.97419007857555,0.9785558117827887,0.9831415025821835,0.9661020060924319,0.9767487728077612,0.9850589883567339,0.9564608912459516,0.9854711211294606,0.9887068182282661,0.9927485615856593,0.9933806341501125,0.9888541648800604,0.9773280491159543
0.9930747991010475,0.9927706856225664,0.989165304537074,0.9849700344234676,0.9810276226945769,0.9770825748797543,0.9908776510057659,0.9918506895331984,0.9801232262613775,0.9825524288199331,0.989268549887169,0.9879514668470484,0.9858725778903743,0.9793939806609767,0.9607312435723925,0.9644759219355615,0.9765571067512786,0.9772142259346271,0.9764107692776621,0.9809416324782562,0.9903455316590568,0.9814431755326508,0.9871321896576399,0.9879583103879519,0.9752684105834555,0.9878192792509185,0.9906737118118772,0.9800294518709713,0.9885596123788795,0.9879959872130313,0.9881841749812117,0.9902264040210175
0.9915242768059319,0.9906934006054753,0.9785985167231755,0.9788406527219166,0.9866774523779506,0.9757792542091982,0.944475160425442,0.9792335976607894,0.9794949506013978,0.9806165209000405,0.9791468653828955,0.9801355469648684,0.9570758395797464,0.9838405482480084,0.9811479588173393,0.9759045063399301,0.9857956153209154,0.9719151401399624,0.9773002916732566,0.9741751477329955,0.9659651091837308,0.974679461704732,0.9875440895876314,0.9900395636872716,0.9877541773968541,0.9878510501023822,0.9815516017306849,0.9834792032808716,0.9889348696181866,0.9895645189214775,0.98590161229719,0.9834570559073418
