Fp1,AF3,F7,F3,FC1,FC5,T7,C3,CP1,CP5,P7,P3,Pz,PO3,O1,Oz,O2,PO4,P4,P8,CP6,CP2,C4,T8,FC6,FC2,F4,F8,AF4,Fp2,Fz,Cz
2.0537940899639158,2.078687062696956,2.1748525805451777,1.9590358314005232,2.0937488751670696,1.9474364069298236,2.185809992695144,2.2677508745349346,2.9352334880374893,2.199661293710282,2.4027131259150765,1.938661819190872,3.076162044627176,1.8449133988970914,1.9837060509538658,2.081568916984276,2.1337014855558225,2.1983147448032936,2.1581427661110544,2.1939235748314307,1.9616145655504145,1.7190744048743605,2.312625766464147,2.4639163611032595,1.9291605156515657,1.8765311973582708,2.131167211688169,2.2311603890461735,2.5062344124012585,2.466371537810613,2.097760592598677,2.1056807654575103
2.4865808197241983,2.6018806541242334,2.499436603082075,2.4903191324764307,2.630836850252578,2.622742427356909,2.3359069128969727,2.935920190223332,2.1588197569090943,2.4493297101660776,2.5811076650628353,2.8630117678150198,2.154311002202231,2.793723621638937,3.3139254730395202,3.035522180144285,2.8913942964510357,2.5799385216648814,2.581998929189925,2.359867117997678,3.0675437063930895,2.5365552939372544,2.890240680907273,2.501292486612765,2.1290375522983953,2.5088466550782975,2.9075136616066803,2.834299707582655,2.4636446587222465,2.428349091233137,2.5672819100168587,2.7092971736106692
2.158998925977685,2.1478295538253507,2.9913467704314995,2.225529358858423,2.1509994811555257,2.178579871804142,2.1982260434067284,2.1358070971409315,2.2982949557962544,2.1640814996596784,2.1344654353213333,2.2986047025864376,2.22746767884665,2.2998674987601917,2.157403542169071,2.1269486063685528,2.0509166728875416,2.221635937523059,2.2291443552473242,2.7815632411225404,3.009247419124703,2.0656660060600394,2.6087804441431417,2.3331000956162145,2.0431226362265087,2.3134461472238192,2.0963091971658447,2.103631353569625,2.2377542577330924,2.2415552466941815,2.1457718460743425,2.1514983265924426
2.8663662341416236,2.7677878545561487,2.61128810036454,2.4317646353642517,2.7236426858941156,2.6602983058706666,2.719115343931964,2.891330779379846,3.170493813241748,3.101327164763412,2.2875615137916068,3.4197369733451137,3.3669402803769395,3.3797692082022466,2.905183564582061,2.987530644025567,3.057264005143714,2.9474567481412532,3.0581591179768353,2.7532581538454926,2.2879736094659773,2.609055270719639,2.9844172167162144,3.2726171318554766,2.1965693655353538,2.8903031485979915,3.323518202704544,3.0498939152366407,2.9314130424003557,2.950934089873292,2.7648694239181704,2.7608095262799273
3.4601104189613725,3.456100236619203,2.3750863632453423,2.669099089936028,3.388285207835048,2.0044793178496176,2.1271114832435116,3.0661807812064605,3.231342123114444,2.183236118632782,2.082913126342869,3.720205680770447,3.394681333846205,3.7776076623389416,3.267523839460049,3.3815762973334778,2.984833374077432,2.5357243709260007,2.598809947200314,2.141086449020334,2.212458103567706,2.36709539748819,2.1794309134227476,3.600012156122712,2.247822098012491,3.098961774160037,2.7423969997376587,3.0563121178142216,2.9953825852432674,3.0639458972246647,3.4227601834969463,3.410308198621389
2.265095111371163,2.378622801933381,2.0168672916446506,2.149309106397036,2.417845041752866,2.722623454203647,2.6703242262090834,2.637290720537479,3.0853842535798184,2.6613067013810454,2.2761077997048744,3.7791170796441147,3.9568445855411802,3.888823819307544,2.4305691472999205,2.2960523764197442,2.1433656939064,3.297218617138483,3.4106058116008557,2.359466406978732,3.17063543019844,2.8977956418135093,2.520400627862446,2.9818123687110805,2.2363692205087973,3.1559283591667633,3.127147653248457,2.2060645893141437,2.7583450237280585,2.705640023402121,2.379043483983654,2.470412913030082
3.665949491252519,3.6924965785472397,2.33935602860401,3.3459754680949723,3.53651795060009,2.0878583349407633,2.469402526104597,2.627649298025597,2.59224288937517,3.499410367125761,1.986054485821847,3.324871005445419,3.3430981966123583,3.432887850194143,2.145589377778751,2.104319821158462,2.099777104543297,2.508153019518132,2.5627401934407597,2.191690594239412,3.982267936990234,2.6833098015807093,2.8733049730564835,2.7830857162788756,2.819311151608849,3.001263965804528,3.0144124363099634,2.818632204368483,3.3202724539086748,3.241713013523174,3.582569337973757,3.5216647295706793
2.6143889400270632,2.5766716277838615,2.1739937340426083,2.1261816077412323,2.6128914016751814,2.881797690581175,2.339142112654493,2.486425653923722,2.527313832345474,2.9420488274224166,2.2514896847157724,3.5810944198889514,2.569874833428867,3.5567583032893713,3.465024431121062,3.397605994060503,3.4333336879869005,3.7986294963096014,3.8383779212815847,2.4714729270234908,2.718268623172257,2.695852482380678,2.756674327294351,3.8305945608928247,3.5511246914236523,3.1646723155367993,3.2313657433811693,3.1362028475815125,2.830188725910673,2.8810166997628874,2.7145175024580865,2.758213158824782
1.9789337625796157,1.9775244714154974,3.275180247554551,2.0836480324629134,1.987694162622978,2.264437628597057,1.9944011960638428,2.3418195045233614,2.3438272133889915,2.2287329874387973,2.4324274250749616,1.9716880481790788,2.0730568526650917,1.9639350668632094,1.9673957355492029,1.9942429059426368,1.9862247946101907,2.058791432211617,2.02798994650673,3.189149598204784,3.365179462909353,2.022482893790831,2.20534849828216,2.149884384274707,1.8973999281990217,1.967026588537055,2.3696850756750925,3.7152999168615786,2.0178065575572326,2.01534279413896,1.982433846652586,1.996120788462205
2.6948971005088773,2.7527218174767722,2.6388551703365333,3.301542608987057,2.7119552249834227,3.605287381931214,2.719902255528849,2.8512930307004143,2.6774739124566937,4.044794333294689,2.809645014012683,2.9301947361217717,2.983942902523629,2.921615654126772,3.163031351490758,3.3320737568012517,2.7298110916582656,3.1778548709181345,3.1604077020458194,2.767710559976803,2.637090249223205,2.4409936705727784,3.360333935048779,3.0651710163459795,2.176594933576951,3.680726316394121,3.1648112997467437,2.9739362293133427,2.913162458622535,2.8998491770173933,2.740898202866466,2.6918983662481613
2.0811307788218567,2.0786171958711597,2.2974105798717788,2.087191846984443,2.0719324705517255,2.926406382267947,2.6246856281114512,2.105575794846912,2.0279024908009746,2.529977301643987,2.226812556762095,2.6297386663976217,2.5777028476841224,2.58931634862501,2.126938351441096,2.10616443823378,2.1039364240247678,2.140909079063023,2.1375679543211663,2.053160971661547,2.071692862661985,2.0744715789016146,2.1786746951882647,2.5879634412409835,2.4981920695399507,2.243465816826206,2.1092271879068485,2.118427405748864,2.149894156421967,2.149437921261879,2.0756978965619957,2.0680899907971777
2.120313874905977,2.1073159592493416,2.5758731892572095,2.020899615519577,2.194865498477549,2.4319540837905946,2.5931380891584612,2.410103621262611,1.8884216276439727,2.0949397106406153,1.970110525349459,2.0880998527377264,1.9519410927384584,2.103484482783476,2.2991217071545225,2.441920090518634,2.4706152964245054,2.42870238017116,2.416819850413263,2.006808322404547,2.2033299962562873,2.189538778950518,2.5844553881964987,2.5781392842943514,2.1306704862835915,2.7164158305037023,2.708156845317076,2.3499556437879754,2.267185494701979,2.241952923982592,2.15574432477437,2.2175253912224697
2.1865766342939206,2.1648202383675343,3.171796636613599,2.3229463186187727,2.1453163488038958,2.870112480561903,3.1283148824062095,2.370708258604454,3.1173561153071763,2.794549287684465,2.4346346891529222,2.8082092123232827,3.084322303551469,2.812611364423308,2.0732593131509436,1.9274396387208297,1.8985212930280495,2.462829487489697,2.4473179366284903,2.2630269134267946,2.1554312198500725,3.1087192721700285,2.7978804056158944,2.462404615426935,2.40235944460187,2.3451673975612706,2.916204048906496,2.742428162664194,2.9778133297660556,2.9771907725679254,2.160889650673032,2.122543430506462
2.8392681619367655,2.847817658612165,2.768530588589293,2.573039371888412,2.8462423090604196,2.2698968447191556,2.331866609019459,2.684807990163118,2.8790408270352166,2.797305784934165,2.5312187514464126,3.5386731138710803,2.680080269187338,3.5825109796555017,3.3356658756734423,3.2518832155249835,3.104449357437272,2.9394612689299775,2.9363627926372042,2.652741305302393,2.6989243969760586,2.934128672680102,2.206314184180227,2.6303287905408785,2.2552434338437735,2.957510159105577,2.3658678892140625,2.1505241040774106,3.1608506234131024,3.140089895112282,2.8293745196582307,2.820755871404692
2.6240504291586317,2.588438984476806,2.674041887043008,2.2999142404260957,2.4202058501503583,2.4130179610574127,2.592713231196751,2.8578898476053634,2.529644217751666,3.096292807551739,2.6521149954728607,2.5280277905639217,2.558792272877126,2.59022091174691,2.0651383685599067,2.0615405889936307,1.992997992734086,2.1126117034944922,2.1300307824526485,2.3435323401912016,2.4549020111109274,3.2243447695097,2.5249662367418844,2.7783542567233783,2.077310211858961,2.8313992253438074,2.608166994038224,2.6530316818207553,2.4884038362606953,2.468053523009644,2.5747980239116797,2.348130026628729
2.961195141099046,2.9571331762456072,3.635450129761099,2.426634361317161,2.6769078616602453,2.9879957689767385,3.039013748717932,2.413124026650598,2.7752873158618976,2.665041083647444,2.304851284658902,4.049620236429218,3.6256063209373157,3.9538392827503994,2.5346005859558165,2.4401996649549957,2.569866558671192,3.243243666353381,3.3581512450428503,2.27793877931914,3.4071271692028864,3.1289407978676635,3.0784582344702547,3.491925108813568,3.424875161483089,3.5687498241061415,3.424596469977099,2.2542336361116995,2.7002280531092286,2.6969187784617894,2.843481288132822,2.610550071728367
2.068438171623372,2.047183836571063,2.7663968889805415,1.9690098867145789,2.0377195582484675,2.069930186337024,2.3502708135025028,2.092943051772304,2.116502398769357,2.1336247210581107,2.161365426599864,2.843866459323453,2.9204709643502444,3.0051301614792933,2.0361591835782717,2.0604665042106065,2.130379998397552,2.7612859136910934,2.7371867698509105,2.17439707833275,2.2469429942960466,2.490780259839861,2.168863236537665,2.709742130777507,1.9764615419424445,2.8104303196438734,2.196256768762163,2.04682725456626,1.8592355874329625,2.144346577323899,2.086697692088196,2.0273900585317577
2.1080008895723386,2.1222712251880465,2.4166710924528543,2.1379656879625673,2.1640322221899524,2.108691969722772,2.418651743589277,2.3810498075042874,2.5708429941413247,2.7369537228399206,2.2434587326302533,2.2549289778991417,2.387496633425912,2.2934291202127643,2.1255153530079207,2.063471721820241,2.0420962179179276,2.1874344790373517,2.165123761130792,2.550640726124908,2.729010731662468,2.075672650682013,2.1116116123239723,2.0289869916313217,1.919941486311728,2.186585642369761,2.0126773177055224,2.1702145779566013,2.0390550253522797,2.046794434200535,2.1159156833597788,2.1846990815029113
2.2079614762334803,2.2562022926057383,2.15498744206367,2.1609316634126245,2.345642838741429,2.0894506318989388,2.3712549309442537,2.794752620990661,2.2440020865240826,2.3048262360003964,2.4431100991420176,2.1829754326818795,2.391252011367675,2.1436308600617187,2.7244254678064257,2.581114418521945,2.48676279501732,2.908686488299289,2.8587847713735233,2.2818393343063144,2.0619662061754234,1.9416250429065778,2.414259953477092,2.315545278163001,2.436432382330565,2.8124157156791467,2.1237210282414622,2.2075213022048796,2.181826791757866,2.170553091577902,2.28199525376369,2.390514118616726
2.265594249744482,2.2128215563083757,2.27230472894846,2.1385234485216964,2.2837280524929793,1.9812716172633307,2.290506053686562,2.4512420319282513,3.0567852035315908,1.8517535086792525,2.334898163499841,2.849630261376085,3.0467181904750014,3.127408330375143,2.386769341477131,2.4952684535766623,2.5500256315106298,2.6535947752063613,2.6874120342908427,2.1031069754292737,1.9720885399697772,2.501838297568734,2.5011494401039127,2.8602249990286706,2.1301891514172646,2.533089195246877,2.107828911034524,2.1730715757325725,2.0307204688676013,2.0207355967632217,2.2530484336354752,2.270418395696296
2.414681153612958,2.4005190702888797,2.179392993648856,2.1417414066265086,2.4681058933028237,2.2524725304794577,2.382996334862123,2.5692552236132142,2.7650383217469834,2.5361433685269885,2.4959910561123424,2.911487782419917,2.541586162935767,2.8554262920602214,2.730595368478052,2.6985647418252343,2.8362063299018523,2.665328571984109,2.630372222028842,2.7336476192857964,2.7180052020076695,2.3421657695052995,2.081952681588917,2.3035839008573515,2.301389555876651,2.3317592799223053,2.251963998121209,2.297007414607011,2.0326478766505964,2.027332262179052,2.458197475418354,2.49332841520127
3.2764968984741976,3.1882531376720387,2.1590254799552215,2.7697360208195936,3.1749797860300193,2.668711787573624,2.508246305601349,2.839813076547393,2.621501145358611,2.3211512346581715,2.0453919326732026,2.842347530858977,2.914530292335227,2.851548878055009,3.1537476043495314,2.579252340490267,2.4003049730395065,2.8876879054934803,2.8556692752468846,2.249938985880167,2.705384236131981,2.2225753056700697,2.6550431983026166,2.900997072048686,2.69388281172309,3.8492848167273377,3.200632704692734,2.2357234572817037,2.541508748475196,2.559704925529812,3.1902032404659924,3.2405298206306012
2.6729034215566814,2.766539260294211,2.7702977768525647,2.696425674831322,2.745345249252831,2.078894229911642,2.660979625982308,2.468987695215509,2.5491307418940354,2.2614467712610744,2.271704202623301,2.8804788004943696,2.647999207195249,2.898668489888295,2.149332494486915,2.080151003385536,2.0670969198448934,2.082742485847702,2.2000040608852034,2.1577664185297776,2.603001481362922,2.243067787640648,2.5223171430396394,2.4528243340869924,1.994816772551941,2.8857977412617877,2.637536470960904,2.235512614165677,2.4838418336862618,2.4967142804151212,2.7475099406115615,2.643276299735782
2.650341185223525,2.7174732252995915,2.401989985735907,3.4148917904647154,2.9453742081029572,2.16451173423224,3.184528991394827,2.2361325710548554,4.2318494764180175,2.627719034775534,2.8261631727208907,4.303650315314751,4.416761084402672,4.427798332450547,3.345721374973771,3.021644781871962,2.887456866507908,3.6173104937483656,3.625740019222344,3.1582977793216807,2.5487056804222776,2.26256001613688,2.9960587782496724,3.6531591513322583,2.260947243615254,3.822178924117953,2.757638963855642,2.821282571038661,3.29838520495514,3.3272299898142514,2.7270007618248564,2.9561093109517715
3.507328179095653,3.497189918863653,3.0916518056279347,2.8241636595665116,3.471335505747041,3.0448255785580174,2.4558615144937246,2.9699852143394216,2.6727022506925144,3.1401403081245904,2.5703841081237644,3.275301461278377,2.9499967367702156,3.312646017346041,3.4050214985551635,3.2795791446785723,3.381167520490649,3.5261963217994547,3.4626678027370326,2.663347888028442,2.865925246963566,3.3878828926595963,3.055648266079733,3.003260376272666,2.572227004428563,3.032934380743674,2.9358077026207003,3.1663281861185926,3.3143589947297056,3.3096241735789347,3.483714120883576,3.536174596619535
2.4869014870383124,2.4346819525151004,2.242614911188809,3.1325373968045587,2.4811134817552256,2.3570098719096815,2.4025385112452833,3.3127267723094715,2.4856507034508697,2.252159568579153,2.6145591702046382,2.402597503538228,2.5337352396572297,2.456355618773829,2.46533539551596,2.560850618212729,2.7040483204786385,2.796100250514639,2.7732467535108474,2.2191954259587896,2.133911928829506,2.787027333467264,2.294108099811943,2.673533801031403,2.374889281386892,2.4022465565194513,2.439478846428029,2.473126223626803,2.574000610512069,2.5837550438656205,2.47921600844339,2.490809928423504
2.6601777993089524,2.6391725543665516,2.874820971160946,2.9193219535643737,2.7264445591199955,3.0700175196454977,3.3488290581249167,3.476023055572649,2.890615148349546,3.1930830461288497,2.900810349348141,3.021886494505321,2.7970300655796922,2.9369341621998912,3.6000222316618182,3.655379881969956,3.5515450704184213,2.9064403848696427,2.8809430395071645,3.156860941467008,3.2098312335566423,2.3939986664471085,3.216005212688331,3.42678468835226,3.2611491372694545,2.952238280094394,2.934652595032789,2.8005834363853426,2.674683579810864,2.664429662677484,2.6633913243025087,2.7466707881097583
3.5335237961764974,3.4795235831328455,2.484131544725769,3.350812089315309,3.5882111441322677,3.1107875449978835,3.3754617764475303,3.447134682629564,3.1945832408081136,3.2288264037785526,3.2523513378435496,3.288276866631644,3.2793883725047595,3.3551171858000997,3.640556155275293,3.5861786612498885,3.649973906023943,3.4102987278064503,3.4213998963224324,2.373115214146121,2.989687510732346,3.255068652440654,3.3231396945519056,3.7774317173796104,3.359730813266397,3.18840460090191,3.2699925192944765,3.5505662358042294,3.4105556338638885,3.3894027191968212,3.479084204266427,3.444566308737025
2.4193844657703503,2.4817143685881953,2.6947517639435854,2.366463563139889,2.645578017167904,2.9131534601173015,3.296311034384571,2.730338588791458,3.2418769209051246,3.24588036347017,3.203857110186,3.0889804861465837,3.101941614467287,3.0890083531169448,3.481264739056971,3.3832405550825024,3.2904952531121388,3.2400175077565683,3.254244082693921,3.4845435286489073,3.036159479160799,2.41863496894677,3.3055394911533207,3.5769601110304086,3.180573854379572,3.1872207041904326,3.0794452926436824,2.3282924198149293,3.0903974097578666,3.073848490341683,2.4837565133415715,2.6606273509504286
2.5276067408786522,2.499408565036829,2.67361559046883,2.494144799023114,2.6725443498756603,3.2101049734358993,2.6670261101519817,2.8976045266407016,3.3618364076471616,2.7966054297614,2.792892931934276,3.1039264160132034,3.255394829008881,3.2031750179391882,2.9314204855153623,2.9143180530506037,2.654927262966677,2.8340095731752375,2.9792460926695017,3.080696945203248,2.593594321498175,3.4890747561213287,2.781657275171015,3.0477245060899545,3.165837743931588,3.2978106872011494,3.225028299101754,2.5611182108336887,3.3864497203091037,3.387958116519103,2.6105382481155446,2.7238734724626914
2.705984891306493,2.9008134455992605,2.8991927017811725,2.4700806951574164,2.9756663210925813,3.2234308328826584,2.580713786904325,3.052058892382404,3.720033344347457,2.7219186937683784,2.7352711607388347,3.9319545417322153,3.949770716040568,4.0078841926934645,2.9080113559227465,2.6665378905199906,2.9135525739972588,2.8656365481976023,2.904790692399411,3.1035976644677445,3.1610584216867634,3.2686666622347973,3.011796351610641,3.7242045651540794,3.288234176676673,3.4036115755952254,3.318878581797592,3.7437513703701897,2.792229474239805,2.78379109017325,2.8116842722562,2.962418841070625
3.4564692328465827,3.4624848466722815,2.507413084828019,2.5820612050302616,3.4496563418228576,3.3678518610081367,3.3619470851349575,3.4064450512158952,3.9316230297020582,3.71433492489696,3.8380097712699808,3.8480631679034167,4.046731218119773,3.9507940665694945,3.5990352891687687,3.384398375767452,3.2936884559087938,3.3457539966123155,3.4672770818396184,3.5686595533088834,3.430119563137742,2.985585334960745,3.233041601847757,3.5198590616366525,3.5615951283167466,3.6745115338819434,3.1297494946558952,2.971948781235848,3.2322446502387443,3.236085995038191,3.4656069498383726,3.4257752105817114
2.526249579432025,2.50798464890777,3.0653292913215617,3.2431425356928556,2.8777635643596406,2.3541492307328005,2.326747696474791,4.007837351548663,2.531789264268856,2.3675378879400366,2.7406795730974074,2.4671143257927017,2.458917053733638,2.466959632071662,2.9843693315530926,3.1782158032279337,3.496868915596363,3.2107308925525233,2.8833361265891853,2.2448015926177463,2.2924331180994164,3.0472007392508615,2.728886456342757,3.111095762114253,2.9085190821179983,2.5683818111574794,2.946110215687597,3.375488635889469,2.420675753874866,2.4250296035747456,2.6447664218253117,2.9645993535945045
