Fp1,AF3,F7,F3,FC1,FC5,T7,C3,CP1,CP5,P7,P3,Pz,PO3,O1,Oz,O2,PO4,P4,P8,CP6,CP2,C4,T8,FC6,FC2,F4,F8,AF4,Fp2,Fz,Cz
2.4708262496612554,2.360652919368706,1.729098843720767,1.6868481560620778,2.1961728737559936,1.8977829677168887,2.0499344299541833,1.8253511245625602,2.004276163962378,2.0454756458653933,1.9906837034866043,1.8194049140023414,2.2680095260179045,1.9664925749776996,2.0740255836348602,1.670730099530286,1.8167741477968202,1.855212703044221,1.798970926580545,1.836718151157076,1.9412845326347759,2.2493507867788214,1.9865456332533111,1.9418486617914665,2.2660239143931897,2.0611009931351987,2.111213037712895,2.1648926753336806,2.1364559181568876,2.094750646752996,2.1705376961456606,2.020401776160503
2.0935692181316123,1.882094351935519,1.9854285160455867,1.750647180455456,2.023249942669755,1.730603515608999,1.8850312359495474,1.8160265250808112,1.9080695583025908,1.7785865017773919,1.7405475055524824,1.8185805824405499,2.2332675374304016,1.9627991988492437,1.9807500334049724,2.397562190153839,2.4456384736976937,2.4291721486586866,2.2630257921263435,1.716397793219251,2.0479088020740774,1.9023959667477328,1.9971745503502594,2.3533788693066344,2.4632772450188534,2.205007207681959,1.6546912009037695,2.058289995667683,2.31827726471169,2.3373553058244427,2.5179621947903,2.0550228695176593
2.078233687274895,2.163070316153877,2.3587348397665235,2.068810124408457,2.2588898879613173,1.8693852573507852,2.004455565966783,2.0988475633933885,1.688293140464676,1.8739309970507638,2.1476218672472114,1.935914104251596,1.4541324697229898,1.8594617974784569,1.8765618678495906,2.21419484153025,1.9991492013408423,1.964243562303422,2.0313048999099057,1.7363539017632441,1.9655534687790728,2.61043570241891,2.0389159144899205,1.8501177599594987,2.2327768752236907,2.0222893765210808,2.0870292969492024,1.881290311081763,2.5696576115352254,2.31084668436268,1.9688259278182143,2.07403374989291
1.9819795843654748,2.0509424945221113,1.8183606611535543,1.8206367945448905,1.9257971422695306,1.8444242091725036,1.9970279654638676,2.038831030028707,2.1089348279746596,2.1314301935231867,2.0172798644225485,2.152876522069701,2.1102540556949867,2.192557471552486,2.185784224923865,2.1663995329314756,2.2731959677974825,2.2724513711867536,2.261089902553329,2.04782730100755,2.023715910494131,2.1899198486226896,1.990266011272908,2.178586724743396,2.2984462169716804,2.1481575829328867,1.8596095351919273,2.128697233113562,2.4289041564119627,2.306583901361142,2.035771799042605,2.158538948141625
2.3469822891098886,2.2786233144452384,1.7785091344204997,2.1182232733097512,2.1812530727360957,2.298300638154979,2.1159355364338532,1.772464548705887,2.0440117126770603,2.0012132314269695,2.062506715775607,1.989634083158415,1.3831365702690805,1.7815691467412549,1.9404608811132267,2.013786996032382,1.842141655646332,2.016896017055629,2.0562092433604127,2.216469774377776,2.259172608581091,2.3737569912386607,1.9465489198082244,2.0538488485929296,1.90048154997602,2.1013274141937175,1.7480353433122384,1.85753316523769,1.9637087249056828,2.081836487901651,2.2766019996454836,2.077402942738467
2.1168989202209727,2.1322154523041967,1.9531245773630839,2.126974702310736,2.544972397481155,1.789334393785879,2.0065076490681237,1.5973609967886664,2.0240550896554663,2.3118525607839913,2.39417839314539,2.2736613990195345,1.9999712878656892,2.286793798533977,2.2793322125854028,2.51671190044649,2.471644321923898,2.4851324108713735,2.537962620207652,1.9076666281625922,2.123786234865448,1.9755625649330792,1.819795033543867,1.7616802391444302,1.929186679681922,2.600667911903613,2.007509813149683,1.9991231161210663,2.1938676100784322,2.371592204042657,2.2715361060636816,2.2442627513890314
2.068701232148684,1.926881942260995,2.1304807740276748,2.2355758169593827,2.106693844811442,1.7415986183203462,2.05876832161594,2.2748019407083473,2.098802623588949,2.0308017387561543,1.9011762977718727,2.039981493615349,1.9810754379714333,1.8659288615697918,1.8494416549148147,2.072707656762975,2.0664396404071725,2.033933916261881,2.052805971752069,1.6954401365011735,1.7064976376330283,2.0709397801294562,1.6485402929698432,1.7841127547918074,1.6155597111806612,2.0768502194759164,1.802789091567961,1.6442547706024913,1.6806232358328286,2.152447398385996,1.9477943968981988,2.1337625628739096
2.3238062853970005,2.5957890600451594,1.8353091557139216,2.3653554961572993,2.474020263841197,2.2654943151154368,1.8628939841554526,2.0367695261237864,1.5084299197289939,1.81929419219843,1.9344018750008811,2.0009167334027382,2.102952689260507,1.9002212242078627,1.9730286899749427,1.9019159166606245,2.070622278674293,2.1113395015147263,2.2988703772056462,2.272619080286672,1.9597021137410604,2.2552277067208784,2.194431188438269,1.7775635464382082,2.195289625807755,2.4273718421739874,2.266850856707899,2.12518926757889,2.321496644531489,2.4059898460365656,2.5058760331539407,2.1892369332248016
2.5420261251155427,2.314179093540455,2.045682690761271,1.9698592790212608,2.19505090439994,2.37073396990243,1.79020726138794,2.176604699002015,2.3330914393009343,1.9432888964216737,1.9334333126370233,2.0853424176724475,2.247469356663763,1.8419411644675463,1.879901603367601,2.0465892307389657,2.1940453635636517,2.268076926047206,2.244225243481945,2.0192061172376876,2.109629692858468,2.29659781706209,2.356496202570753,2.222597808249006,2.1432918242667256,2.529412563003216,2.1591366777921235,2.0044006328190993,2.7054610728712793,2.5387736656611932,1.9683492254755215,2.058266305179425
2.5167854006903263,2.127402121091463,2.367859444004527,1.7871607473118027,2.1917036392911236,2.0576090972822505,2.2297411591767675,1.862215159466443,1.9848660013767827,1.567943030958773,2.391262463979598,1.9806718838249409,1.8009823468435635,2.251099698726646,2.2893877614753086,1.9352612292868374,1.9305453583470291,1.9336285965119258,2.0365011405325077,2.3691828068617475,2.109862472533509,2.5694641063096757,2.5100431124533586,1.9892888040497905,2.451999573065094,2.591475642600526,2.1877345605096044,2.057184873760562,2.091731325976954,2.106480708531816,2.37405119494167,2.097193259645736
1.8225985724062865,2.0717617721576405,2.330843415664376,1.937856832591353,2.019171978412732,2.176909445027581,2.0936797347999296,1.9998079765371723,2.3094224145755855,1.87588298879444,2.339404823300608,2.2459438339844833,1.8819376699403407,2.4014623153671457,2.421802486454233,2.1193113459254693,2.2233005009847,2.2139009713615367,2.1656099486762463,2.0686262930859756,2.0721134277874533,2.475341415680481,2.362710121107637,2.011226253057187,2.1479209927508003,2.2234098576811308,2.257988231241259,2.028415254887334,2.3972177914114026,2.2848523327745465,2.111836972229701,2.346194498477121
2.383815872342306,2.1972019129119724,1.9397428139377157,2.2521875189631815,2.476648052780121,1.8789928846455113,2.4300929217285123,2.1275247512490885,1.839539536750387,2.422380991952282,2.3782536295337464,2.462905439448209,1.9109553997631805,2.145312382679951,2.1167801073715244,2.3020935802397586,2.3410831935837133,2.3515206355354104,2.343778510055662,1.7774940390393172,1.9533779073864213,2.14177740375109,2.244286968048002,1.7912183810502367,2.5137292335777355,2.364256674706745,2.208133704165431,2.088843346602255,1.8991608933265627,2.2619197153488653,1.8264491586291096,2.0024211195400143
1.9313169619991133,1.8274188710875123,2.3322689820474336,1.9665013200828463,2.1325573873436614,1.7411839054910365,1.751431747214035,1.654871609834313,1.6721702229272122,1.6403002770308346,2.243348605692595,1.7427211574897994,1.8460455560398707,2.329661665301826,2.3034671794969177,1.9874765779362427,2.393403836516889,2.166806662183963,2.280191838142794,2.244147565798824,1.916350575595524,2.155374470697196,2.5344194592663687,1.9416638771712293,2.0903748239346873,2.123422607573953,1.9301185725035592,2.068826543009504,2.2425389696127347,2.0093704762219056,1.9931083894323403,1.8432110817501308
2.3346143817897596,2.4944104480011116,1.8260088227820683,2.290183309573917,2.671566689471776,1.58597492280185,2.325625465531762,2.1284795010258235,2.1421589672192187,1.8132592710116602,2.125103758903008,1.736004680950369,1.5635902532935593,2.1255055129427136,2.183223443550515,2.4427950003275947,2.4096681314265553,2.3192714598016244,2.2344363725167575,1.7507079863391797,1.941804614705837,2.2300163379876317,2.0160357808008182,1.890286477387765,2.076543004770399,2.2285743067252843,2.0730685927641015,1.9588424171175272,2.299784362685914,2.2265530755053815,2.559621501618423,2.0405874783184945
2.0665168790506083,2.0030141559182177,2.1017926098423176,1.9842980401056802,2.4407892469833192,1.7638062385274453,2.030090319518677,2.0710297427104924,2.0875998568152956,2.2460402967147064,1.931389482818636,2.2087956103500224,2.3298978280636997,1.9062887080576965,1.9054361851724861,1.8676305716467838,1.886075433511854,1.8662402980378112,1.8012800302994123,1.7864716448888753,1.851119775339895,2.1910133280886868,2.171562587255244,1.9319428583925016,2.0726154573921787,2.520364896683308,1.9830020390670258,2.107001178419545,2.0249453206587766,2.2166046322865287,2.1573250428629485,2.2145405915293326
1.94425079733396,2.1938097301501016,1.8320926624171538,1.9439365741733945,2.2138823146448985,2.1491499114527377,1.9980260716935763,1.9946246087066708,1.9911709158684994,2.056985023816986,2.107574453308961,1.927948703315307,1.9568115145812748,2.211272253953032,2.249997395028401,2.300173341939556,2.1261941082882174,2.1469794391524117,2.2291019996505828,1.9241775096682652,1.9609463463737982,2.259717113987207,2.2327173735788093,1.975592290273885,2.2950343029020073,2.0911562948837012,2.001305949009879,2.1206142273186757,1.966732683751244,1.909371699121758,2.170150235568918,2.154521638382766
2.5891915364552776,3.006467407173508,2.7892776892630886,3.366068931225213,3.028943512556202,1.8677988554490645,2.1885971230007555,2.6061863060617183,2.6656577474216054,1.7646760115971145,2.325842469310516,1.8153862497352273,1.6189956480509027,2.309238441754311,2.305925389334843,1.9382111109533064,1.8912216019717938,1.9434628713081514,1.951025995478468,1.9523801069689286,1.8863493664207935,2.4433074855101324,2.000826817547435,1.7236428948047162,2.0283334639933877,2.2928772002747415,2.004531688520746,1.9628911152045205,2.203551165553608,2.270881078867212,2.125946251942748,2.4916904670945113
2.0005985419903998,2.084660032064358,1.8450094079065684,2.2185727520005343,1.8822039895505678,1.640760926074035,2.049097707620513,2.2246565002808527,2.339999581453003,1.9249556568794224,1.7564842307093966,1.5140988467980554,1.5624940923847925,1.833086205279137,1.689335555791363,2.061959187168908,2.3603299612377877,2.125425031861375,2.047863963481187,2.304441265879111,2.0950451284711087,2.414938858354886,2.27487217863484,1.853714412595297,2.434402244547056,2.330868473275303,2.4398912140774183,2.005850148196097,1.936748169880636,1.9656993473181719,2.4232371189181885,2.5553962967195494
2.6508149746548644,2.749458856174628,2.461799116338645,2.14175267183266,2.9560893433292734,1.769561176480091,2.3617458508627953,2.0072385899191456,2.376868393918806,2.0545296029694633,2.3557161182089787,2.24128907587707,1.9483093196548606,2.4942928679121374,2.3780851109280317,2.0938438820519307,2.3411771494332445,2.40265968655516,2.444386296209134,2.0862421568830256,2.3604508011193377,2.673109213442085,2.48054328897748,1.9588503361579002,2.095721405743204,2.2061577684410634,2.2797987050240742,2.218932280450801,2.653589187076032,2.609622089068098,2.3339954601751844,2.236424428735102
2.2261995942916237,2.0315033848203017,1.8374520646425658,1.9285027075703896,2.11795137100809,1.8126969314366417,2.129064203607729,2.1564078427274675,1.8636606563940752,1.6643147662470288,1.9481365372825314,1.6763425360169437,1.9678356658526328,1.8511741333860492,1.84711297450599,1.989916625345236,1.8241906306553117,1.8978824951909463,1.8029434598721108,1.5873391135225279,1.7792330285665159,2.2979462677653237,1.9987653154610396,1.8126783606281343,1.9998506729883498,2.0761896674244897,1.805087475750023,1.7042792924067902,1.8164432704670777,1.953954615579585,2.2658559994206358,2.064515929696974
2.1617824380811186,2.352319179432564,1.9140589141268236,1.9527289489954076,2.2647483073048393,2.185127808181972,2.2341124904664413,2.0899455302678707,1.783443745231244,2.019431091005895,2.112383733684273,1.8418957315764921,1.7738750686751912,1.8496432404000336,1.915917251824715,2.034847015778738,1.9347795351514832,1.9179407364037813,1.7686801285649085,2.1765915411194463,1.8924925680779405,2.071084295470888,1.881935042264592,1.7283142757661627,2.078582429804041,2.07788356386593,1.9996240669600203,1.767590804529981,2.1636405680075987,1.8628140161700504,1.9537770251917197,1.7325734135298247
2.4317636671671985,2.2449871524665963,2.1741814940888413,2.254398796204526,1.8740381241698378,1.8133900003100552,2.141507095938212,1.8368682723355754,2.0536703992983756,1.7022327269569653,2.1178706184580576,1.6783045296463739,1.8534464329417455,1.9162595007769818,1.9928814653483526,2.052446280087528,2.069348873233353,2.0267618747815592,2.029494212910134,1.4366905439547144,1.741921490646624,2.0933432113207977,2.13439529883999,1.5589992263566743,1.838942496955751,1.9096020835166103,1.8712501421231995,1.8894582381612892,2.115706598813681,2.0573409486756797,2.167898926725267,2.003501144581567
2.2136628930425353,2.2697687903647665,2.145521654888362,2.0012141702870516,2.2158152744775466,1.7901391388673455,2.0693221534582387,2.1779535445392924,2.216748311667753,1.890073533779655,2.009607571321282,1.9603990290331221,1.8683957418883925,2.016762999969498,2.0500927798823674,1.9668600601523676,1.975283069632257,1.9231941056496915,1.8898875244855335,2.0758153420545558,2.109063924886404,1.8384735926581013,2.4422499558591446,2.0224770436232644,2.2506586041786347,1.9486038409057012,1.758794088938596,2.287401690397393,2.122183535112227,2.3587713284720975,2.138515215101419,2.5032614874094623
1.7747626009535358,1.7965037459118691,2.035073293052207,1.7018559652425773,2.1762521962896604,1.9857814304149526,2.208800289282335,2.195616792809703,2.2101423549622283,1.6199033571801496,1.7323238346622054,2.0823183362066224,1.7463659794804278,1.9823719353913105,2.0171130356389226,2.1444940955259293,2.135902059523323,2.1548468081468166,2.155194197519528,1.8905801362074945,1.7718056608568407,2.1984065667852706,2.383751846062146,1.9902376734871203,2.4025652836117577,2.2332245484357314,2.1687984942843714,2.0341998067452827,2.3391758868825496,2.3727156646824663,2.3729967713199613,2.2732126957302503
2.1536510200409573,2.163083667033065,1.9198875724617213,1.4629550333470018,2.114191228359687,1.7667373365487327,1.9647936773019405,1.5216514096652447,1.8449990479887157,1.6690046192203063,1.6431209561641538,1.7602240442391588,1.8119693970624804,1.7820681550083797,1.829590270671155,2.595492591794244,2.1555687767655343,2.1388487700281757,2.1010939387601186,1.6933260575649995,1.761007492316281,2.2029635987353426,1.739817526655412,1.7807664426998981,1.9460291974493835,2.130278913991097,1.9827720771232327,1.7375166264310538,2.0478835839780043,2.0442343512592984,2.2056716206787232,2.032894555266841
2.8182324046607237,2.6383660331911063,1.8003067313088918,2.2489732715736404,2.7302325743484315,1.9838366883407823,2.2165760005929367,2.310901709526896,2.3723532614538523,2.363623846053855,2.9348380846963216,2.395625000724901,1.722167092562414,2.3674925242934757,2.4085551228700677,2.6108490917421348,2.3829229976248016,2.37907165229866,2.265042477231581,2.095491089700175,2.100939870041541,2.0536298671848874,2.2433885960122186,1.3339100433287796,2.4540973077881065,2.5658117545628043,2.244669578681246,2.0952427597775247,2.3397675030197855,2.4027836900779915,2.5323381363833737,2.2477102838290715
2.3841539490283132,2.2579139944368203,1.8072295545080865,2.0425815865904906,2.4468015823631806,1.6467333455434323,2.059102971372841,2.0424611588738393,2.071364489856254,2.332816294096106,2.0059916950656387,1.949569360906742,1.6701580972788375,1.9696413788214362,2.01037123057908,2.2245677641210366,2.219813672397139,2.1706175013645295,2.1049848462493856,1.7921949075094272,1.9391516048106936,1.8789747956664014,1.9565220976557987,1.6303372128102414,1.8631681015868153,2.3134125925672193,1.8943113693025737,2.0423799100023365,2.1848552310401224,2.2040645064306124,2.360228856293088,2.3534808949379027
1.739165025131055,1.9984950234151069,1.9196683689906084,1.986035104293264,2.1803689735174654,2.0068322263733904,1.9327854725042262,2.334896648297676,1.7690037490543882,1.9195221117852062,2.1966662798514967,1.8553233893946823,2.1894441157622446,2.2025604664911693,2.2652696946724062,2.181473399808649,2.2318711882691815,2.253034428730575,2.2588262579105187,1.9146413866889709,2.0188274739909593,2.2969943990475272,2.152487582149885,1.9926891708275667,2.035491529898268,2.2858154056372904,1.9459996164498385,1.991442760449919,2.031072068085651,1.9863640057301397,2.0463566854293616,2.0662885940791735
2.6510169826979584,2.345531936503331,1.9949178197593336,2.0730994073458007,2.293655551730907,2.1540552922404923,1.9431563732908337,1.931925711088315,2.058124483289357,2.0592007537783443,1.9689138470763967,1.7653366976599607,1.7425943991098416,1.8359628535259513,1.9447256895828897,2.4003980143375583,2.4619738677067704,2.438033026770835,2.4399147243873567,2.365911200037607,2.11900584524929,2.2339289036944527,2.4270862691182993,1.6794910752237724,2.462116601479286,2.2634918900610366,2.137292869553187,1.7033346079654825,2.293561184773339,2.2351811242939417,2.611462881742804,2.2106754845226257
