Fp1,AF3,F7,F3,FC1,FC5,T7,C3,CP1,CP5,P7,P3,Pz,PO3,O1,Oz,O2,PO4,P4,P8,CP6,CP2,C4,T8,FC6,FC2,F4,F8,AF4,Fp2,Fz,Cz
1.99926600691445,2.376822010909937,2.2698577584210753,2.1708159973116072,2.3269846853161433,2.183166708968833,1.5073046936090304,2.361705969009984,2.5477734705667685,2.0542152317072033,2.0928555642689046,2.123630695119059,2.5241137757839605,2.0530146979099735,2.4234320827041143,2.439608413900039,2.396927005790006,2.4099553858099836,2.441908908608704,1.6639814688381827,1.9236645165166375,2.263506003491752,2.241017114512694,1.97960429087406,2.078780276872366,2.571204032944475,3.0032389105295856,2.108919749590283,2.97025493607791,3.0251464698912103,2.9361883111539897,2.6018417129116886
1.941318208606819,2.2008069539889408,1.9915505809161385,1.9585767238579226,2.2172782648599947,1.9343674564065494,1.7979026521973933,2.028258894319398,2.038467352874485,1.88715972265891,2.1094194660063583,2.2654626284519463,2.1369966619787517,2.1223745346329133,2.282900243153054,2.274107551374747,2.3155297143190063,2.283760517907375,2.412035646290441,1.8121050867197166,2.001797251208646,1.935580384123446,2.1553117374691277,1.6567673899866993,2.2134008280698345,2.336405924444149,2.5932845855033677,2.0716908760444808,2.6117501698383756,2.133952450628034,2.5592863110087984,2.0982971098916483
1.9617173818174432,2.139364924674279,2.1539124375737817,1.9631995721238025,2.27354033129532,1.993515474715522,2.127719209593592,2.159908577991578,2.3213550578540714,1.8618942682334088,2.012300996831932,2.1821345237353316,2.2787498187955197,2.1318164519242027,2.260890497581689,2.2941906439552366,2.374597228949064,2.3298035738849623,2.4469872514128057,1.9338808736606905,2.0468441453848043,2.2261023211088395,2.1246417798300903,2.158428946003708,2.2078358024492677,2.5469734533606263,2.262539568261157,2.126091265640698,1.9167471363569166,2.2762154140177446,1.9969941387697212,2.298191894929544
1.9723948555582422,2.1944198263754333,2.015161510772684,1.9854187563203585,2.242838303269807,1.9492753793266056,2.1994278141576085,2.1901091026327038,2.2864895656613013,1.714272578768354,1.8061609492092376,2.3258303705666217,2.362285990300976,2.1942081473576924,2.205771390161408,2.2490069924168017,2.237002269503682,2.2631002483624827,2.466760348705006,1.704725886900399,1.8112175065180167,1.967705840792668,2.123377032021556,1.9510729933266384,1.589325914933248,2.372301024967881,2.048826638024032,1.844979168984351,2.217326904864152,2.017647882147814,2.0730899715616316,2.2677068561562987
1.4064220091220094,1.773615509511921,2.093638462285963,2.084951050688413,2.3454832250131457,2.1039457478133867,1.8969067741770045,2.002796855219793,2.37260686722509,1.7758270585799263,1.9558460576783763,2.180772287444814,2.1630808807502104,2.1500899590992635,2.224850810242562,2.213293417893432,2.182193069236288,2.199111210635694,1.9448303634537358,1.8624505652691141,1.9090242157723807,2.1561035348605735,1.8609749924198562,1.8804816382718428,1.7762620460159235,2.2300787121531505,1.8134965292688485,2.0193875795298015,2.033512650917924,1.9222898671648563,2.126514844343731,2.2961800561146335
1.885065810900219,2.4358115433723015,2.064472836413443,1.981212092650389,2.171545948388753,2.008182723072081,1.9459551248807012,2.210530677790129,2.2138877240225487,1.574988220373308,1.8039454768960475,2.28018735736826,2.6148783347796716,1.9626919716041142,2.1420039999402785,2.1712775439273004,2.17507807189998,2.169851743588541,2.291291243154111,1.8941436201596478,1.9788554385426238,2.1465582374766337,2.1783244990577018,1.7667133749805046,2.0562951493203507,2.0879533452123105,2.161272036028498,1.9706577270962125,2.192892247539679,2.3188916873865617,2.135218552534737,2.1404607605912154
2.029057953836511,2.1354781734382593,2.181433683104521,1.9502349082194947,2.60617360197935,2.0228801721431062,1.9824093258979132,2.0503780532703026,2.70364603189437,1.3503853201998182,1.9078842448383901,2.614830208225436,2.637624196750265,2.0178995975261085,2.1500110160514794,2.1919752750972976,2.185387844473566,2.211544899149812,2.5438595793441543,1.7309053658579083,2.20229237366704,1.9927701119679198,2.1071829800291932,2.031428212426265,1.8745400770028742,2.066463545064328,1.785945010216635,2.0686130938488323,2.35719217297812,2.443670575679598,2.387246852598239,2.5743929247936386
1.4799148692463842,2.203598983486445,2.265730142972889,2.1861033142137716,2.033949835858187,2.249948582286981,1.960062252934183,1.888389087603662,2.4051111240922998,1.5421875717014284,1.7760870837055587,2.0077780875662765,2.0524164227132604,1.9621464833650935,2.0889954243206406,1.9657789798780154,1.9749194874422293,1.9839586527296744,2.2764091075131274,1.850539405849588,1.9229332187905732,2.213512671025058,2.055535779933577,1.8758959217882234,1.4059763136047732,2.079802179907936,1.9260036406975571,1.9084427458347741,2.2757909325171704,2.1442578703472455,2.1110410525431496,2.1894733848258
1.5956312508249133,2.317830114566443,2.5802031819887086,2.299130930150491,2.1663578893507136,2.4146912938355785,2.473623992977097,2.086444725376493,2.3273500101736984,1.59279286918041,1.8680945728968956,2.310247502319053,2.4855770882096224,2.2206840700036694,2.211226383924846,2.2247318347812928,2.2021056275259023,2.1843452597988726,2.1975068363533667,1.3043685593645795,1.9941838350193735,2.096644156897992,2.13463695785047,1.999147603977157,1.962187867444649,2.287980758907954,2.034201220193671,1.9355790086188074,2.1133328594780108,2.0909661852947794,2.0567724240296883,2.2008075984012097
1.9080832681879725,2.5430008570073763,2.206135206698558,2.2892859508028445,2.2073131951752822,2.382494183923035,1.9075852074875608,2.26954296794206,2.3068401220185586,1.6328266341509898,1.6366110948771124,2.5780952133589325,1.9367021162737927,2.1486876972864923,1.764864319930437,1.8282667063647686,1.893654706242539,1.9020554283856614,2.208680142224318,1.338869993215773,1.6857577878972005,2.167032419726576,2.0266656622831785,1.76590985582133,1.7261587514954406,1.9834595449969248,1.9965928259742236,1.9196606079582599,2.3236634076900122,2.072585879308965,2.199463140949054,2.236068068142521
1.517412648731994,2.280666970242902,1.6571926255233622,1.7435538560464134,2.275213332830563,1.6857079377941084,1.395417756468189,2.1528169348440995,2.3342244832249244,1.0955639107012003,1.945272711974026,2.4758187665394877,2.3312634293239527,2.6775235075599793,2.5127544562347413,2.461329523179358,2.4877939775198983,2.482140714708963,2.264708432985233,1.7734601558288328,2.1311327880416577,2.527306150402637,2.8621974957985756,1.8895862543355506,1.786874110509504,2.8121616815462698,2.239024132207378,2.282326750610509,2.121419250685614,2.0656448303831234,2.0842997038651645,2.3010428719219633
1.4414987439819287,2.114532219756651,2.2091848319132765,1.8445243199365708,2.366567698658291,2.017478680077386,1.919076781318479,2.1403459444518105,2.5589765027430227,1.994153922751038,1.9972489943700484,2.1724018793168196,2.0817096075549526,1.9601048439498792,2.1423330448063425,2.140827401111651,2.137552450309557,2.1220047258767454,2.0476438073628103,1.5729691717440926,1.6502247278571318,1.8672009826361786,2.333509367569485,1.6638105633436482,1.600154124127024,2.2332311454455644,2.2676108972466977,2.0226993999918554,2.370835214735503,2.9761309332684456,2.1579651132540247,2.410082907005073
2.155417258611837,2.568670083557321,1.7578885145552918,1.7083689684206755,1.7153095641213345,1.798423236047148,2.0751106919125224,2.0074009518359452,1.9180499677527747,1.9813083031856908,1.9519662484727438,2.92676320003214,2.0701744500009367,2.3236576248204464,2.3182824026713935,2.284719946696627,2.292528400388588,2.3146133267220086,2.176658268199009,2.0620429992739115,1.816970951547808,2.215835522322789,2.0949736314828056,1.6559455807679326,1.6707010022125985,2.4952400692527963,2.0411804167689773,1.9140099602058938,1.9922368128037422,2.1152876719277462,2.1174730830757715,1.7420874846782457
1.6800183531359831,2.2397384708637094,2.168109148023602,2.1038151283014703,2.792291761428959,2.1642115454044317,2.0709653954979954,1.9243068883859953,2.651525322223347,1.4509902755294513,2.03616390517073,2.143080366616681,2.7269985884827705,2.2301755501909533,1.8678842523361314,1.8921919176290607,1.8963368836029353,1.9297010260763472,2.3023318943246536,1.9963193736649743,1.8148191829975038,2.1301739863219673,2.1686851349638903,1.9583006078353427,2.4571551435135914,2.1937633102187473,2.196886904629331,1.922078370160762,2.3606532127846838,2.5911856606586077,2.4148750451969105,2.7755764191288335
2.20734747847587,2.2610726968252357,2.113810958973532,2.2497630667928252,2.231048460039251,2.2345006989005727,1.5837237447878567,2.6159364308290263,2.2850765658704026,1.5227547393341456,1.2144564558321784,2.314398897988555,2.5053368771046656,2.483373854428259,2.593599249234864,2.616298222474037,2.6271429301474925,2.630613031668571,2.703179128051015,1.3497109952502286,2.024711771669656,2.052260407543256,2.0855012716215944,1.5828424669421475,2.1682087189024766,1.9244699730343442,1.6242001432599709,2.0843288781624514,2.2813867727642374,2.367794321110289,2.1984060177773115,2.276436413380133
2.22358661174691,2.3979658148344196,2.216152393803106,2.1841632847589807,2.884680697382008,2.1874168087010935,2.322545833987599,2.10773146047994,2.9506368730002683,2.3928843172241607,2.371696797242873,2.462664961130178,2.475895805455262,2.233902011254654,2.1867957830542473,2.200204051775425,2.227520905754993,2.241440176352371,2.2435830584052456,2.012216692947032,2.0590707407957196,2.053747568788822,2.030597883448325,2.276667052361837,2.2913336521987424,2.1400033120756556,1.739158051991025,2.074256629552314,2.996098478271221,2.482814233368713,2.2621911101642826,2.8249578292568667
1.911674501613302,2.2257911005112025,2.048835924397494,2.0602580913662343,1.904058955936233,2.046547316081804,1.890735160463685,2.053826943419835,1.8940579058301625,1.617216153150427,2.117631025967272,1.9887011700537363,2.366274288753378,1.91082125089633,2.1208310371625902,2.121116884677526,2.148989852870546,2.1055530985774435,2.4598836959003716,1.5191226787340961,2.29527089960884,2.196645082208327,2.301685511788794,2.030003763106333,2.1407251784241264,1.9593060803132316,2.073383166834585,2.0711925063413736,2.1663615158186382,2.0780740583594772,2.112731795231521,1.8983365580818545
1.8925900700209537,2.283382930281493,2.2265013275286742,2.0422030169155603,1.9434208596217795,2.0755534517773535,1.7690433210245136,1.881586345992552,2.069495495090551,1.8835713614479923,1.9586978682633658,2.000664371497296,2.3573616036733926,2.315489232398821,2.030571507974745,1.9914369472606224,2.025184701405599,2.0496348286474375,2.205885353220758,1.9514446759049362,2.3536710990202914,2.2910454758679437,2.22598071200697,2.1883577332989006,1.8072092584936954,2.4555834521640727,2.7045455670534717,2.0654304406428468,2.8295907153308026,2.0259344433444935,2.815009358992223,2.013945210689624
2.1263934930020194,2.315720000019925,2.170834383445384,1.9485674948219214,2.1573895699246206,1.9613565449736772,1.9363058385836414,1.9612370034101199,2.1957054746865974,1.5985569078372193,1.838610276771005,2.1731217128917173,2.042841806023714,2.0005969403390385,2.204261194831788,2.2139521980476506,2.234454072389077,2.265174094689621,2.396625687103773,1.761080981677192,1.8521547343957128,2.006721043605456,2.2508268140769063,1.7613209520388533,2.0628049067990615,2.463351470009088,2.24414092899339,1.9288422424305505,2.416370702744507,2.5981372323678995,2.3400312137870065,2.1582859700056236
2.2953267503245254,2.8882294322944215,1.9494304567743326,2.0543238551819054,2.3208264163194396,2.0118741386321513,1.5106952353951002,2.6079009439638194,2.294492646036606,1.8686131175907061,2.1421198069965297,2.238035487169812,2.7510074632305495,2.707678036644853,2.427960690904205,2.4365206720738732,2.4661326589522363,2.4764596222758106,2.66729547854524,1.8390305746868398,2.308643404837561,2.1242069115191606,2.1885198387503344,2.135795025017276,2.3230433096389236,2.561997872624505,2.8237941418454664,2.4674443617503465,3.1410853200058773,2.430563397446095,3.194841121986204,2.3076492474966233
2.138222646932592,2.810318911803255,1.8042221062011345,1.686711632649759,2.622977696159257,1.9239978599005048,1.6396403593397337,2.237536678530098,2.673723001933028,1.7491492201676653,1.723732692736271,2.325767068141037,2.7302207858318495,2.182329887839856,2.038505776520402,2.0753725245577312,2.076103130343134,2.08894934291617,2.424406671469617,1.9272934162194413,2.1497426638368053,2.2739677466387995,2.2292702644689975,1.61840368532023,2.2500196161697446,2.507679427366707,2.3876235831544825,2.2090166048715303,2.4206179186031718,2.2199479236405106,2.6148889550774963,2.589652045917256
2.049169045331016,2.5794946757337813,2.214898048558823,2.387633456733439,2.29646412472833,2.3403252687528995,2.0009417051852494,2.2208657623132595,2.4200557606405453,1.903160390133904,2.3816235020039884,2.377737058731982,2.2972835006750536,2.3456765963106374,2.3428112713105147,2.3451273819358773,2.3468172496986073,2.3470528346022963,2.279183454829403,1.9194337236996297,1.9413101921885814,2.130761779229106,1.8869753244374496,2.0650442157395763,2.0968001921159836,2.4138913429425153,2.36938518008613,2.409226304391837,2.543135245783498,2.361880243656894,2.676837684629854,2.353220768316006
1.961316762155801,1.7474039100549768,1.9584123749544295,1.6344048717536572,2.1875518054511707,1.6854079774679291,1.6293103404907545,2.0247689378404705,2.133704195138047,1.9306499951296736,1.9836429305662855,2.1032636418421573,2.081497640664347,2.203127063800144,2.184231541438966,2.1691890535677683,2.160477657233564,2.163486721825533,2.223239175805511,1.828314609549062,2.0159621104411656,2.2953062918132083,2.2323279031588594,1.993827361739113,1.8801044326347158,2.527104089996656,2.190782818299041,1.9360992982471557,2.444807058385559,2.360646156094073,2.442767112868832,2.240844001260094
1.8136918623834686,2.0847165421773006,1.9743450957926112,2.107002266947716,2.3889469845562417,1.971896729944805,2.1252510150451807,2.3321001621274533,2.3251337407004717,1.789175706428317,2.0880653892998535,1.9588562598414403,2.3436323945875444,2.115882693094607,2.1613397365669886,2.087948131825186,2.100787129369593,2.17101807798205,2.2368109160423435,1.6309716197856532,2.2382148204858607,2.4693810344264224,2.041028518059639,1.9604209823566126,1.7344352449952922,2.643058489659179,2.3621082757557033,1.5573030696101535,2.6988953312812543,2.4740472838728103,2.5540087053707756,2.4977234586922727
